*RAS_DATA_START
*RAS_HEADER_START
*DISP_FMT_X "%.4f"
*DISP_FMT_Y "%.0f"
*DISP_FULLSCALE "30425041.6999999990"
*DISP_LINE_COLOR "255.0000000000"
*DISP_LINE_STYLE "0.0000000000"
*DISP_LINE_WIDTH "0.2500000000"
*DISP_NOTE "Collected Data-54"
*DISP_OFFSET_Y "0.0000000000"
*DISP_PEAKSEARCH_UNIT_Y "cps"
*DISP_RANGE_BOTTOM "0.0100000000"
*DISP_RANGE_LEFT "-0.0006000000"
*DISP_RANGE_LOGCUTOFF "0.0100000000"
*DISP_RANGE_RIGHT "6.0006000000"
*DISP_RANGE_TOP "30425041.6999999990"
*DISP_SCALE_MODE_Y "2.0000000000"
*DISP_TAB_NAME "2-Theta/Omega"
*DISP_TITLE_Y "Intensity"
*DISP_UNIT_Y "cps"
*DISP_WINDOW_NAME "MSG_MACROENGINE"
*FILE_COMMENT " "
*FILE_MD5 ""
*FILE_MEMO " "
*FILE_OPERATOR "administrator"
*FILE_PART_ID "MEAS_KHP2_00055"
*FILE_SAMPLE "CWO 014"
*FILE_TYPE "RAS_RAW"
*FILE_USERGROUP "System Manager"
*FILE_VERSION "1.0000000000"
*HW_ATTACHMENT_ID "ATT0025"
*HW_ATTACHMENT_NAME "標準|Standard"
*HW_COUNTER_ID-0 "CUT0025"
*HW_COUNTER_ID-1 "CUT0020"
*HW_COUNTER_ID-2 "CUT0020"
*HW_COUNTER_ID-3 "CSL0021"
*HW_COUNTER_ID-4 "CMC0021"
*HW_COUNTER_NAME-0 "D/teX Ultra|D/teX Ultra"
*HW_COUNTER_NAME-1 "None|None"
*HW_COUNTER_NAME-2 "None|None"
*HW_COUNTER_NAME-3 "BBM|BBM"
*HW_COUNTER_NAME-4 "検出器モノクロメータ|Detector monochromator"
*HW_COUNTER_SELECT_NAME "D/teX Ultra|D/teX Ultra"
*HW_GONIOMETER_ID "GON0023"
*HW_GONIOMETER_NAME "SmartLab|SmartLab"
*HW_GONIOMETER_RADIUS-0 "90.0"
*HW_GONIOMETER_RADIUS-1 "114.0"
*HW_GONIOMETER_RADIUS-2 "190.0"
*HW_GONIOMETER_RADIUS-3 "300.0"
*HW_GONIOMETER_RADIUS-4 "187.0"
*HW_GONIOMETER_RADIUS-5 "300.0"
*HW_GONIOMETER_RADIUS-6 "113.0"
*HW_GONIOMETER_RADIUS-7 "331.0"
*HW_I_OPT_ID-0 "CBO0021"
*HW_I_OPT_ID-1 "ICR0021"
*HW_I_OPT_ID-2 "ISL0021"
*HW_I_OPT_ID-3 "ISO0021"
*HW_I_OPT_ID-4 "IAD0021"
*HW_I_OPT_ID-5 "IPR0001"
*HW_I_OPT_NAME-0 "CBOユニット|CBO unit"
*HW_I_OPT_NAME-1 "標準入射光学ユニット|Standard incident optical unit"
*HW_I_OPT_NAME-2 "標準入射スリットボックス|Standard incident slit box"
*HW_I_OPT_NAME-3 "入射平行スリット|Incident parallel slit"
*HW_I_OPT_NAME-4 "長手制限スリット|Length limiting slit"
*HW_I_OPT_NAME-5 "None|None"
*HW_R_ATTENUATER_AUTOMODE "1"
*HW_R_OPT_ID-0 "RSS0021"
*HW_R_OPT_ID-1 "RCR0023"
*HW_R_OPT_ID-2 "RSO0021"
*HW_R_OPT_ID-3 "RRS0021"
*HW_R_OPT_ID-4 "ATN0021"
*HW_R_OPT_ID-5 "RFL0021"
*HW_R_OPT_ID-6 "RAD0021"
*HW_R_OPT_NAME-0 "標準受光スリットボックス1|Standard receiving slit box # 1"
*HW_R_OPT_NAME-1 "標準受光光学ユニット1|Standard receiving unit # 1"
*HW_R_OPT_NAME-2 "標準受光光学ユニット2|Standard receiving optical unit # 2"
*HW_R_OPT_NAME-3 "標準受光スリットボックス2|Standard receiving slit box # 2"
*HW_R_OPT_NAME-4 "標準アッテネータ|Standard Attenuator"
*HW_R_OPT_NAME-5 "Cu Kβ|Cu K-beta"
*HW_R_OPT_NAME-6 "調整用受光スリット|Alignment receiving slit"
*HW_SAMPLE_HOLDER_ID "SMP0021"
*HW_SAMPLE_HOLDER_NAME "χφZクレードル|Chi phi Z cradle"
*HW_XG_CURRENT_MAX "200"
*HW_XG_CURRENT_MIN "10"
*HW_XG_CURRENT_RESOLUTION "1"
*HW_XG_CURRENT_UNIT "mA"
*HW_XG_FOCUS "0.4mm x 8mm"
*HW_XG_FOCUS_TYPE "Normal"
*HW_XG_ID "1700"
*HW_XG_NAME "9kW 開放管(45kV 200mA ID:1700)|9kW Rotating anode(45kV 200mA ID:1700)"
*HW_XG_TARGET_ATOMIC_NUMBER "29.0000000000"
*HW_XG_TARGET_NAME "Cu"
*HW_XG_TYPE "Rota"
*HW_XG_VOLTAGE_MAX "45"
*HW_XG_VOLTAGE_MIN "20"
*HW_XG_VOLTAGE_RESOLUTION "1"
*HW_XG_VOLTAGE_UNIT "kV"
*HW_XG_WATT_MAX "9.00"
*HW_XG_WATT_UNIT "kW"
*HW_XG_WAVE_LENGTH_ALPHA1 "1.540593"
*HW_XG_WAVE_LENGTH_ALPHA2 "1.544414"
*HW_XG_WAVE_LENGTH_BETA "1.392250"
*MEAS_COND_AXIS_NAME-0 "Theta/2-Theta"
*MEAS_COND_AXIS_NAME-1 "2-Theta"
*MEAS_COND_AXIS_NAME-2 "Omega"
*MEAS_COND_AXIS_NAME-3 "Chi"
*MEAS_COND_AXIS_NAME-4 "Phi"
*MEAS_COND_AXIS_NAME-5 "Z"
*MEAS_COND_AXIS_NAME-6 "2-Theta/Omega"
*MEAS_COND_AXIS_NAME-7 "Theta_s"
*MEAS_COND_AXIS_NAME-8 "Theta_d"
*MEAS_COND_AXIS_NAME-9 "Ts"
*MEAS_COND_AXIS_NAME-10 "CBO selection slit"
*MEAS_COND_AXIS_NAME-11 "M"
*MEAS_COND_AXIS_NAME-12 "Incident parallel slit"
*MEAS_COND_AXIS_NAME-13 "Incident slit"
*MEAS_COND_AXIS_NAME-14 ""
*MEAS_COND_AXIS_NAME-15 "Zs"
*MEAS_COND_AXIS_NAME-16 "Incident optical device"
*MEAS_COND_AXIS_NAME-17 "Omega_m"
*MEAS_COND_AXIS_NAME-18 "Length limiting slit"
*MEAS_COND_AXIS_NAME-19 "Center slit"
*MEAS_COND_AXIS_NAME-20 "Filter"
*MEAS_COND_AXIS_NAME-21 "Receiving slit # 1"
*MEAS_COND_AXIS_NAME-22 "Receiving slit # 2"
*MEAS_COND_AXIS_NAME-23 "Receiving optical device"
*MEAS_COND_AXIS_NAME-24 "Receiving parallel slit"
*MEAS_COND_AXIS_NAME-25 "Alignment receiving slit"
*MEAS_COND_AXIS_NAME-26 ""
*MEAS_COND_AXIS_NAME-27 ""
*MEAS_COND_AXIS_NAME-28 "Zd"
*MEAS_COND_AXIS_NAME-29 "Attenuator"
*MEAS_COND_AXIS_NAME-30 "Diffracted beam monochromator"
*MEAS_COND_AXIS_NAME-31 "Monochromator slit"
*MEAS_COND_AXIS_NAME-32 "Primary beam"
*MEAS_COND_AXIS_NAME-33 ""
*MEAS_COND_AXIS_NAME-34 ""
*MEAS_COND_AXIS_NAME-35 "PHA"
*MEAS_COND_AXIS_NAME_INTERNAL-0 "TwoThetaTheta"
*MEAS_COND_AXIS_NAME_INTERNAL-1 "TwoTheta"
*MEAS_COND_AXIS_NAME_INTERNAL-2 "Omega"
*MEAS_COND_AXIS_NAME_INTERNAL-3 "Chi"
*MEAS_COND_AXIS_NAME_INTERNAL-4 "Phi"
*MEAS_COND_AXIS_NAME_INTERNAL-5 "Z"
*MEAS_COND_AXIS_NAME_INTERNAL-6 "TwoThetaOmega"
*MEAS_COND_AXIS_NAME_INTERNAL-7 "ThetaS"
*MEAS_COND_AXIS_NAME_INTERNAL-8 "ThetaD"
*MEAS_COND_AXIS_NAME_INTERNAL-9 "Ts"
*MEAS_COND_AXIS_NAME_INTERNAL-10 "CBO"
*MEAS_COND_AXIS_NAME_INTERNAL-11 "CBO-M"
*MEAS_COND_AXIS_NAME_INTERNAL-12 "IncidentSollerSlit"
*MEAS_COND_AXIS_NAME_INTERNAL-13 "IncidentSlitBox"
*MEAS_COND_AXIS_NAME_INTERNAL-14 "IncidentSlitBox-_Axis"
*MEAS_COND_AXIS_NAME_INTERNAL-15 "Zs"
*MEAS_COND_AXIS_NAME_INTERNAL-16 "IncidentMonochromator"
*MEAS_COND_AXIS_NAME_INTERNAL-17 "IncidentMonochromator-OmegaM"
*MEAS_COND_AXIS_NAME_INTERNAL-18 "IncidentAxdSlit"
*MEAS_COND_AXIS_NAME_INTERNAL-19 "CenterSlit"
*MEAS_COND_AXIS_NAME_INTERNAL-20 "Filter"
*MEAS_COND_AXIS_NAME_INTERNAL-21 "ReceivingSlitBox1"
*MEAS_COND_AXIS_NAME_INTERNAL-22 "ReceivingSlitBox2"
*MEAS_COND_AXIS_NAME_INTERNAL-23 "ReceivingOptics"
*MEAS_COND_AXIS_NAME_INTERNAL-24 "ReceivingSollerSlit"
*MEAS_COND_AXIS_NAME_INTERNAL-25 "ReceivingAxdSlit"
*MEAS_COND_AXIS_NAME_INTERNAL-26 "ReceivingSlitBox1-_Axis"
*MEAS_COND_AXIS_NAME_INTERNAL-27 "ReceivingSlitBox2-_Axis"
*MEAS_COND_AXIS_NAME_INTERNAL-28 "ReceivingSlitBox2-Zd"
*MEAS_COND_AXIS_NAME_INTERNAL-29 "Attenuator"
*MEAS_COND_AXIS_NAME_INTERNAL-30 "CounterMonochromator"
*MEAS_COND_AXIS_NAME_INTERNAL-31 "CounterSlit"
*MEAS_COND_AXIS_NAME_INTERNAL-32 "IncidentPrimary"
*MEAS_COND_AXIS_NAME_INTERNAL-33 "AlphaR"
*MEAS_COND_AXIS_NAME_INTERNAL-34 "BetaR"
*MEAS_COND_AXIS_NAME_INTERNAL-35 "PHA"
*MEAS_COND_AXIS_NAME_MAGICNO-0 "83951616.0000000000"
*MEAS_COND_AXIS_NAME_MAGICNO-1 "268632064.0000000000"
*MEAS_COND_AXIS_NAME_MAGICNO-2 "268500992.0000000000"
*MEAS_COND_AXIS_NAME_MAGICNO-3 "268500992.0000000000"
*MEAS_COND_AXIS_NAME_MAGICNO-4 "268500992.0000000000"
*MEAS_COND_AXIS_NAME_MAGICNO-5 "285278208.0000000000"
*MEAS_COND_AXIS_NAME_MAGICNO-6 "83951616.0000000000"
*MEAS_COND_AXIS_NAME_MAGICNO-7 "131072.0000000000"
*MEAS_COND_AXIS_NAME_MAGICNO-8 "131072.0000000000"
*MEAS_COND_AXIS_NAME_MAGICNO-9 "318898176.0000000000"
*MEAS_COND_AXIS_NAME_MAGICNO-10 "20971521.0000000000"
*MEAS_COND_AXIS_NAME_MAGICNO-11 "285343744.0000000000"
*MEAS_COND_AXIS_NAME_MAGICNO-12 "20971521.0000000000"
*MEAS_COND_AXIS_NAME_MAGICNO-13 "22020097.0000000000"
*MEAS_COND_AXIS_NAME_MAGICNO-14 "25165824.0000000000"
*MEAS_COND_AXIS_NAME_MAGICNO-15 "318898176.0000000000"
*MEAS_COND_AXIS_NAME_MAGICNO-16 "20971521.0000000000"
*MEAS_COND_AXIS_NAME_MAGICNO-17 "285343744.0000000000"
*MEAS_COND_AXIS_NAME_MAGICNO-18 "20971521.0000000000"
*MEAS_COND_AXIS_NAME_MAGICNO-19 "20971521.0000000000"
*MEAS_COND_AXIS_NAME_MAGICNO-20 "20971521.0000000000"
*MEAS_COND_AXIS_NAME_MAGICNO-21 "23068673.0000000000"
*MEAS_COND_AXIS_NAME_MAGICNO-22 "23068673.0000000000"
*MEAS_COND_AXIS_NAME_MAGICNO-23 "20971521.0000000000"
*MEAS_COND_AXIS_NAME_MAGICNO-24 "20971521.0000000000"
*MEAS_COND_AXIS_NAME_MAGICNO-25 "20971521.0000000000"
*MEAS_COND_AXIS_NAME_MAGICNO-26 "25165824.0000000000"
*MEAS_COND_AXIS_NAME_MAGICNO-27 "25165824.0000000000"
*MEAS_COND_AXIS_NAME_MAGICNO-28 "285343744.0000000000"
*MEAS_COND_AXIS_NAME_MAGICNO-29 "17301505.0000000000"
*MEAS_COND_AXIS_NAME_MAGICNO-30 "20971521.0000000000"
*MEAS_COND_AXIS_NAME_MAGICNO-31 "20971521.0000000000"
*MEAS_COND_AXIS_NAME_MAGICNO-32 "20971521.0000000000"
*MEAS_COND_AXIS_NAME_MAGICNO-33 "8388608.0000000000"
*MEAS_COND_AXIS_NAME_MAGICNO-34 "8388608.0000000000"
*MEAS_COND_AXIS_NAME_MAGICNO-35 "0.0000000000"
*MEAS_COND_AXIS_OFFSET-0 "-"
*MEAS_COND_AXIS_OFFSET-1 "0.8950000000"
*MEAS_COND_AXIS_OFFSET-2 "0.7066000000"
*MEAS_COND_AXIS_OFFSET-3 "0.0000000000"
*MEAS_COND_AXIS_OFFSET-4 "0.0000000000"
*MEAS_COND_AXIS_OFFSET-5 "-"
*MEAS_COND_AXIS_OFFSET-6 "-"
*MEAS_COND_AXIS_OFFSET-7 "0.7066000000"
*MEAS_COND_AXIS_OFFSET-8 "0.1884000000"
*MEAS_COND_AXIS_OFFSET-9 "-"
*MEAS_COND_AXIS_OFFSET-10 "-"
*MEAS_COND_AXIS_OFFSET-11 "-"
*MEAS_COND_AXIS_OFFSET-12 "-"
*MEAS_COND_AXIS_OFFSET-13 "-"
*MEAS_COND_AXIS_OFFSET-14 "-"
*MEAS_COND_AXIS_OFFSET-15 "-"
*MEAS_COND_AXIS_OFFSET-16 "-"
*MEAS_COND_AXIS_OFFSET-17 "-"
*MEAS_COND_AXIS_OFFSET-18 "-"
*MEAS_COND_AXIS_OFFSET-19 "-"
*MEAS_COND_AXIS_OFFSET-20 "-"
*MEAS_COND_AXIS_OFFSET-21 "-"
*MEAS_COND_AXIS_OFFSET-22 "-"
*MEAS_COND_AXIS_OFFSET-23 "-"
*MEAS_COND_AXIS_OFFSET-24 "-"
*MEAS_COND_AXIS_OFFSET-25 "-"
*MEAS_COND_AXIS_OFFSET-26 "-"
*MEAS_COND_AXIS_OFFSET-27 "-"
*MEAS_COND_AXIS_OFFSET-28 "-"
*MEAS_COND_AXIS_OFFSET-29 "-"
*MEAS_COND_AXIS_OFFSET-30 "-"
*MEAS_COND_AXIS_OFFSET-31 "-"
*MEAS_COND_AXIS_OFFSET-32 "-"
*MEAS_COND_AXIS_OFFSET-33 "0.0000000000"
*MEAS_COND_AXIS_OFFSET-34 "0.0000000000"
*MEAS_COND_AXIS_OFFSET-35 "-"
*MEAS_COND_AXIS_POSITION-0 "-0.0008000000"
*MEAS_COND_AXIS_POSITION-1 "-0.0008000000"
*MEAS_COND_AXIS_POSITION-2 "-0.0004000000"
*MEAS_COND_AXIS_POSITION-3 "0.0000000000"
*MEAS_COND_AXIS_POSITION-4 "0.0000000000"
*MEAS_COND_AXIS_POSITION-5 "-1.4203000000"
*MEAS_COND_AXIS_POSITION-6 "-0.0008000000"
*MEAS_COND_AXIS_POSITION-7 "-0.0004000000"
*MEAS_COND_AXIS_POSITION-8 "-0.0004000000"
*MEAS_COND_AXIS_POSITION-9 "-4.7636900000"
*MEAS_COND_AXIS_POSITION-10 "PB"
*MEAS_COND_AXIS_POSITION-11 "0.0000000000"
*MEAS_COND_AXIS_POSITION-12 "Soller_slit_open_s"
*MEAS_COND_AXIS_POSITION-13 "0.250mm"
*MEAS_COND_AXIS_POSITION-14 "0.2500000000"
*MEAS_COND_AXIS_POSITION-15 "-0.9021900000"
*MEAS_COND_AXIS_POSITION-16 "Ge(220)x2"
*MEAS_COND_AXIS_POSITION-17 "0.0000000000"
*MEAS_COND_AXIS_POSITION-18 "2.0mm"
*MEAS_COND_AXIS_POSITION-19 "None"
*MEAS_COND_AXIS_POSITION-20 "None"
*MEAS_COND_AXIS_POSITION-21 "0.250mm"
*MEAS_COND_AXIS_POSITION-22 "0.250mm"
*MEAS_COND_AXIS_POSITION-23 "No_unit"
*MEAS_COND_AXIS_POSITION-24 "Soller_slit_5.0deg"
*MEAS_COND_AXIS_POSITION-25 "None"
*MEAS_COND_AXIS_POSITION-26 "0.2500000000"
*MEAS_COND_AXIS_POSITION-27 "0.2500000000"
*MEAS_COND_AXIS_POSITION-28 "0.0893700000"
*MEAS_COND_AXIS_POSITION-29 "1/10000"
*MEAS_COND_AXIS_POSITION-30 "None"
*MEAS_COND_AXIS_POSITION-31 "None"
*MEAS_COND_AXIS_POSITION-32 "None"
*MEAS_COND_AXIS_POSITION-33 "0.0000000000"
*MEAS_COND_AXIS_POSITION-34 "43.1000000000"
*MEAS_COND_AXIS_POSITION-35 "34.0000000000"
*MEAS_COND_AXIS_UNIT-0 "deg"
*MEAS_COND_AXIS_UNIT-1 "deg"
*MEAS_COND_AXIS_UNIT-2 "deg"
*MEAS_COND_AXIS_UNIT-3 "deg"
*MEAS_COND_AXIS_UNIT-4 "deg"
*MEAS_COND_AXIS_UNIT-5 "mm"
*MEAS_COND_AXIS_UNIT-6 "deg"
*MEAS_COND_AXIS_UNIT-7 "deg"
*MEAS_COND_AXIS_UNIT-8 "deg"
*MEAS_COND_AXIS_UNIT-9 "mm"
*MEAS_COND_AXIS_UNIT-10 ""
*MEAS_COND_AXIS_UNIT-11 "pulse"
*MEAS_COND_AXIS_UNIT-12 ""
*MEAS_COND_AXIS_UNIT-13 ""
*MEAS_COND_AXIS_UNIT-14 "mm"
*MEAS_COND_AXIS_UNIT-15 "mm"
*MEAS_COND_AXIS_UNIT-16 ""
*MEAS_COND_AXIS_UNIT-17 "pulse"
*MEAS_COND_AXIS_UNIT-18 ""
*MEAS_COND_AXIS_UNIT-19 ""
*MEAS_COND_AXIS_UNIT-20 ""
*MEAS_COND_AXIS_UNIT-21 ""
*MEAS_COND_AXIS_UNIT-22 ""
*MEAS_COND_AXIS_UNIT-23 ""
*MEAS_COND_AXIS_UNIT-24 ""
*MEAS_COND_AXIS_UNIT-25 ""
*MEAS_COND_AXIS_UNIT-26 "mm"
*MEAS_COND_AXIS_UNIT-27 "mm"
*MEAS_COND_AXIS_UNIT-28 "mm"
*MEAS_COND_AXIS_UNIT-29 ""
*MEAS_COND_AXIS_UNIT-30 ""
*MEAS_COND_AXIS_UNIT-31 ""
*MEAS_COND_AXIS_UNIT-32 ""
*MEAS_COND_AXIS_UNIT-33 "deg"
*MEAS_COND_AXIS_UNIT-34 "deg"
*MEAS_COND_AXIS_UNIT-35 "div"
*MEAS_COND_COUNTER_CNTLOSS_CORR "0.0000000000"
*MEAS_COND_COUNTER_PHABASE "34.0000000000"
*MEAS_COND_COUNTER_PHAWINDOW "19.0000000000"
*MEAS_COND_COUNTER_PHA_UNIT "div"
*MEAS_COND_COUNTER_TAUDIFF "2.0000000000"
*MEAS_COND_COUNTER_TAUINT "0.1000000000"
*MEAS_COND_IRRADIATION_MODE "OFF"
*MEAS_COND_IRRADIATION_WIDTH ""
*MEAS_COND_OPT_ATTR "High resolution parallel beam Ge(220)x2/RS"
*MEAS_COND_OPT_NAME "@High resolution PB-Ge(220)x2"
*MEAS_COND_UNSYMMETRIC_MODE "OFF"
*MEAS_COND_XG_CURRENT "200.0000000000"
*MEAS_COND_XG_VOLTAGE "45.0000000000"
*MEAS_COND_XG_WAVE_TYPE "Ka1"
*MEAS_DATA_COUNT "3001.0000000000"
*MEAS_SCAN_AXIS_X "2-Theta/Omega"
*MEAS_SCAN_AXIS_X_INTERNAL "TwoThetaOmega"
*MEAS_SCAN_END_TIME "07/27/23 11:47:14"
*MEAS_SCAN_MODE "CONTINUOUS"
*MEAS_SCAN_MONITOR "0"
*MEAS_SCAN_RESOLUTION_X "0.0002"
*MEAS_SCAN_SPEED "0.500000"
*MEAS_SCAN_SPEED_UNIT "deg/min"
*MEAS_SCAN_SPEED_USER "0.500000"
*MEAS_SCAN_START "0.0000000000"
*MEAS_SCAN_START_TIME "07/27/23 11:34:43"
*MEAS_SCAN_STEP "0.0020000000"
*MEAS_SCAN_STOP "6.0000000000"
*MEAS_SCAN_UNIT_X "deg"
*MEAS_SCAN_UNIT_Y "counts"
*RAS_HEADER_END
*RAS_INT_START
0.0000 5995360.5000 1.0000
0.0020 5924056.5000 1.0000
0.0040 6002256.5000 1.0000
0.0060 5948330.0000 1.0000
0.0080 5917160.5000 1.0000
0.0100 5853027.5000 1.0000
0.0120 5811514.0000 1.0000
0.0140 5805583.5000 1.0000
0.0160 5709040.0000 1.0000
0.0180 5613048.0000 1.0000
0.0200 5452509.5000 1.0000
0.0220 5320796.5000 1.0000
0.0240 5368930.5000 1.0000
0.0260 5255284.5000 1.0000
0.0280 5090333.0000 1.0000
0.0300 4973239.0000 1.0000
0.0320 4740707.0000 1.0000
0.0340 4572859.0000 1.0000
0.0360 4452041.5000 1.0000
0.0380 4041593.0000 1.0000
0.0400 3734860.0000 1.0000
0.0420 3439160.7500 1.0000
0.0440 3229523.0000 1.0000
0.0460 2842245.0000 1.0000
0.0480 2557993.0000 1.0000
0.0500 2301876.5000 1.0000
0.0520 1951974.6250 1.0000
0.0540 1693099.7500 1.0000
0.0560 1415605.7500 1.0000
0.0580 1258377.5000 1.0000
0.0600 1055081.3750 1.0000
0.0620 828148.8750 1.0000
0.0640 658988.8750 1.0000
0.0660 524147.9375 1.0000
0.0680 418219.0938 1.0000
0.0700 321644.5313 1.0000
0.0720 261481.8906 1.0000
0.0740 212714.2344 1.0000
0.0760 175371.3906 1.0000
0.0780 148611.7344 1.0000
0.0800 130498.8906 1.0000
0.0820 110017.6719 1.0000
0.0840 97944.9219 1.0000
0.0860 88799.1250 1.0000
0.0880 79608.6406 1.0000
0.0900 76339.0938 1.0000
0.0920 71036.3203 1.0000
0.0940 68854.1406 1.0000
0.0960 67736.9844 1.0000
0.0980 65927.1875 1.0000
0.1000 65584.5938 1.0000
0.1020 62248.0156 1.0000
0.1040 63916.3047 1.0000
0.1060 62791.6992 1.0000
0.1080 61756.4688 1.0000
0.1100 64921.7461 1.0000
0.1120 64370.6133 1.0000
0.1140 66671.9609 1.0000
0.1160 68638.1563 1.0000
0.1180 70738.4141 1.0000
0.1200 72764.1953 1.0000
0.1220 69785.1094 1.0000
0.1240 73464.2734 1.0000
0.1260 73769.6328 1.0000
0.1280 69226.5234 1.0000
0.1300 73367.4531 1.0000
0.1320 75691.1406 1.0000
0.1340 72183.2734 1.0000
0.1360 77217.9297 1.0000
0.1380 77515.8359 1.0000
0.1400 77947.8047 1.0000
0.1420 81336.5156 1.0000
0.1440 77597.7656 1.0000
0.1460 85231.6719 1.0000
0.1480 85901.9609 1.0000
0.1500 82654.7578 1.0000
0.1520 82490.9063 1.0000
0.1540 83987.8984 1.0000
0.1560 88687.4063 1.0000
0.1580 88315.0234 1.0000
0.1600 87704.3125 1.0000
0.1620 92709.1797 1.0000
0.1640 90698.2969 1.0000
0.1660 95226.5078 1.0000
0.1680 95844.6641 1.0000
0.1700 90832.3516 1.0000
0.1720 96500.0625 1.0000
0.1740 97110.7813 1.0000
0.1760 98123.6641 1.0000
0.1780 96522.4063 1.0000
0.1800 102622.0859 1.0000
0.1820 98689.6953 1.0000
0.1840 101080.4141 1.0000
0.1860 105236.2344 1.0000
0.1880 107448.2109 1.0000
0.1900 104588.2891 1.0000
0.1920 107909.9688 1.0000
0.1940 106628.9609 1.0000
0.1960 108304.6953 1.0000
0.1980 111328.4688 1.0000
0.2000 114553.3281 1.0000
0.2020 114873.5859 1.0000
0.2040 114024.5391 1.0000
0.2060 114426.7188 1.0000
0.2080 120072.0859 1.0000
0.2100 112140.2656 1.0000
0.2120 118128.2344 1.0000
0.2140 120310.4141 1.0000
0.2160 121881.8828 1.0000
0.2180 119007.0625 1.0000
0.2200 122552.1719 1.0000
0.2220 119736.9375 1.0000
0.2240 124540.7188 1.0000
0.2260 124205.5703 1.0000
0.2280 126529.2578 1.0000
0.2300 127601.7266 1.0000
0.2320 123431.0078 1.0000
0.2340 131146.8438 1.0000
0.2360 128808.2578 1.0000
0.2380 131608.6094 1.0000
0.2400 131571.3594 1.0000
0.2420 131087.2656 1.0000
0.2440 138095.5625 1.0000
0.2460 133485.4219 1.0000
0.2480 137365.6875 1.0000
0.2500 139629.7969 1.0000
0.2520 139115.9063 1.0000
0.2540 137060.3281 1.0000
0.2560 141357.6719 1.0000
0.2580 145684.7813 1.0000
0.2600 141342.7656 1.0000
0.2620 141245.9531 1.0000
0.2640 138453.0469 1.0000
0.2660 147390.3125 1.0000
0.2680 145074.0781 1.0000
0.2700 150816.2656 1.0000
0.2720 148738.3438 1.0000
0.2740 152484.5625 1.0000
0.2760 151121.6094 1.0000
0.2780 149691.6563 1.0000
0.2800 148693.6563 1.0000
0.2820 148976.6719 1.0000
0.2840 156320.1250 1.0000
0.2860 158182.0625 1.0000
0.2880 160624.9063 1.0000
0.2900 156141.3750 1.0000
0.2920 156208.4063 1.0000
0.2940 163149.6875 1.0000
0.2960 159589.6719 1.0000
0.2980 163328.4219 1.0000
0.3000 163350.7656 1.0000
0.3020 164378.5469 1.0000
0.3040 163231.6094 1.0000
0.3060 164914.7969 1.0000
0.3080 165413.7813 1.0000
0.3100 166262.8281 1.0000
0.3120 170664.4375 1.0000
0.3140 168631.2031 1.0000
0.3160 169070.6094 1.0000
0.3180 169033.3750 1.0000
0.3200 170225.0156 1.0000
0.3220 174708.5313 1.0000
0.3240 177486.5313 1.0000
0.3260 173740.3438 1.0000
0.3280 174991.5469 1.0000
0.3300 182081.7813 1.0000
0.3320 177598.2500 1.0000
0.3340 179921.9375 1.0000
0.3360 182394.5781 1.0000
0.3380 180487.9688 1.0000
0.3400 179743.1875 1.0000
0.3420 184003.2813 1.0000
0.3440 179996.4219 1.0000
0.3460 181173.1563 1.0000
0.3480 193447.0000 1.0000
0.3500 187198.3594 1.0000
0.3520 189700.7969 1.0000
0.3540 189164.5625 1.0000
0.3560 187779.2813 1.0000
0.3580 190192.3438 1.0000
0.3600 194102.3906 1.0000
0.3620 195487.6719 1.0000
0.3640 191153.0938 1.0000
0.3660 198027.3438 1.0000
0.3680 192434.0938 1.0000
0.3700 200328.6875 1.0000
0.3720 195107.8281 1.0000
0.3740 188702.7969 1.0000
0.3760 197580.4688 1.0000
0.3780 195852.6094 1.0000
0.3800 203263.0938 1.0000
0.3820 203791.8750 1.0000
0.3840 202503.4219 1.0000
0.3860 206041.0781 1.0000
0.3880 206785.8594 1.0000
0.3900 203963.1719 1.0000
0.3920 202168.2656 1.0000
0.3940 206882.6719 1.0000
0.3960 207910.4531 1.0000
0.3980 207016.7344 1.0000
0.4000 212230.1406 1.0000
0.4020 203218.4063 1.0000
0.4040 204931.3750 1.0000
0.4060 212200.3438 1.0000
0.4080 216676.4219 1.0000
0.4100 214248.4688 1.0000
0.4120 212892.9844 1.0000
0.4140 218158.5156 1.0000
0.4160 216140.1875 1.0000
0.4180 216989.2188 1.0000
0.4200 214874.0781 1.0000
0.4220 218501.1094 1.0000
0.4240 218799.0156 1.0000
0.4260 220832.2500 1.0000
0.4280 222910.1563 1.0000
0.4300 227989.5000 1.0000
0.4320 219551.2500 1.0000
0.4340 227021.2969 1.0000
0.4360 226723.3906 1.0000
0.4380 224101.7969 1.0000
0.4400 225568.9844 1.0000
0.4420 226075.4375 1.0000
0.4440 229866.3281 1.0000
0.4460 223468.7344 1.0000
0.4480 229300.3125 1.0000
0.4500 227445.8125 1.0000
0.4520 231691.0313 1.0000
0.4540 239905.8594 1.0000
0.4560 230275.9531 1.0000
0.4580 235660.6563 1.0000
0.4600 241603.9375 1.0000
0.4620 233806.1563 1.0000
0.4640 236062.8281 1.0000
0.4660 241916.7344 1.0000
0.4680 235318.0469 1.0000
0.4700 238349.2656 1.0000
0.4720 236949.1094 1.0000
0.4740 235884.0781 1.0000
0.4760 241231.5469 1.0000
0.4780 241425.1875 1.0000
0.4800 243316.9063 1.0000
0.4820 247711.0469 1.0000
0.4840 240315.4688 1.0000
0.4860 242274.2188 1.0000
0.4880 247048.2031 1.0000
0.4900 246526.8750 1.0000
0.4920 246996.0781 1.0000
0.4940 245454.3906 1.0000
0.4960 249334.6563 1.0000
0.4980 246943.9375 1.0000
0.5000 251636.0000 1.0000
0.5020 249118.6719 1.0000
0.5040 253207.4688 1.0000
0.5060 252358.4219 1.0000
0.5080 249580.4375 1.0000
0.5100 251420.0156 1.0000
0.5120 254734.2500 1.0000
0.5140 248522.8594 1.0000
0.5160 244016.9844 1.0000
0.5180 252067.9688 1.0000
0.5200 252470.1563 1.0000
0.5220 251531.7344 1.0000
0.5240 254726.7969 1.0000
0.5260 253274.5000 1.0000
0.5280 254049.0625 1.0000
0.5300 257527.1563 1.0000
0.5320 254644.8750 1.0000
0.5340 259433.7656 1.0000
