*RAS_DATA_START
*RAS_HEADER_START
*DISP_FMT_X "%.4f"
*DISP_FMT_Y "%.0f"
*DISP_FULLSCALE "27252893.2000000030"
*DISP_LINE_COLOR "255.0000000000"
*DISP_LINE_STYLE "0.0000000000"
*DISP_LINE_WIDTH "0.2500000000"
*DISP_NOTE "Collected Data-5"
*DISP_OFFSET_Y "0.0000000000"
*DISP_PEAKSEARCH_UNIT_Y "cps"
*DISP_RANGE_BOTTOM "0.0100000000"
*DISP_RANGE_LEFT "-0.0006000000"
*DISP_RANGE_LOGCUTOFF "0.0100000000"
*DISP_RANGE_RIGHT "6.0006000000"
*DISP_RANGE_TOP "27252893.2000000030"
*DISP_SCALE_MODE_Y "2.0000000000"
*DISP_TAB_NAME "2-Theta/Omega"
*DISP_TITLE_Y "Intensity"
*DISP_UNIT_Y "cps"
*DISP_WINDOW_NAME "MSG_MACROENGINE"
*FILE_COMMENT " "
*FILE_MD5 ""
*FILE_MEMO " "
*FILE_OPERATOR "administrator"
*FILE_PART_ID "MEAS_KHP2_00055"
*FILE_SAMPLE "CWO I5 aneal"
*FILE_TYPE "RAS_RAW"
*FILE_USERGROUP "System Manager"
*FILE_VERSION "1.0000000000"
*HW_ATTACHMENT_ID "ATT0025"
*HW_ATTACHMENT_NAME "標準|Standard"
*HW_COUNTER_ID-0 "CUT0025"
*HW_COUNTER_ID-1 "CUT0020"
*HW_COUNTER_ID-2 "CUT0020"
*HW_COUNTER_ID-3 "CSL0021"
*HW_COUNTER_ID-4 "CMC0021"
*HW_COUNTER_NAME-0 "D/teX Ultra|D/teX Ultra"
*HW_COUNTER_NAME-1 "None|None"
*HW_COUNTER_NAME-2 "None|None"
*HW_COUNTER_NAME-3 "BBM|BBM"
*HW_COUNTER_NAME-4 "検出器モノクロメータ|Detector monochromator"
*HW_COUNTER_SELECT_NAME "D/teX Ultra|D/teX Ultra"
*HW_GONIOMETER_ID "GON0023"
*HW_GONIOMETER_NAME "SmartLab|SmartLab"
*HW_GONIOMETER_RADIUS-0 "90.0"
*HW_GONIOMETER_RADIUS-1 "114.0"
*HW_GONIOMETER_RADIUS-2 "190.0"
*HW_GONIOMETER_RADIUS-3 "300.0"
*HW_GONIOMETER_RADIUS-4 "187.0"
*HW_GONIOMETER_RADIUS-5 "300.0"
*HW_GONIOMETER_RADIUS-6 "113.0"
*HW_GONIOMETER_RADIUS-7 "331.0"
*HW_I_OPT_ID-0 "CBO0021"
*HW_I_OPT_ID-1 "ICR0021"
*HW_I_OPT_ID-2 "ISL0021"
*HW_I_OPT_ID-3 "ISO0021"
*HW_I_OPT_ID-4 "IAD0021"
*HW_I_OPT_ID-5 "IPR0001"
*HW_I_OPT_NAME-0 "CBOユニット|CBO unit"
*HW_I_OPT_NAME-1 "標準入射光学ユニット|Standard incident optical unit"
*HW_I_OPT_NAME-2 "標準入射スリットボックス|Standard incident slit box"
*HW_I_OPT_NAME-3 "入射平行スリット|Incident parallel slit"
*HW_I_OPT_NAME-4 "長手制限スリット|Length limiting slit"
*HW_I_OPT_NAME-5 "None|None"
*HW_R_ATTENUATER_AUTOMODE "1"
*HW_R_OPT_ID-0 "RSS0021"
*HW_R_OPT_ID-1 "RCR0023"
*HW_R_OPT_ID-2 "RSO0021"
*HW_R_OPT_ID-3 "RRS0021"
*HW_R_OPT_ID-4 "ATN0021"
*HW_R_OPT_ID-5 "RFL0021"
*HW_R_OPT_ID-6 "RAD0021"
*HW_R_OPT_NAME-0 "標準受光スリットボックス1|Standard receiving slit box # 1"
*HW_R_OPT_NAME-1 "標準受光光学ユニット1|Standard receiving unit # 1"
*HW_R_OPT_NAME-2 "標準受光光学ユニット2|Standard receiving optical unit # 2"
*HW_R_OPT_NAME-3 "標準受光スリットボックス2|Standard receiving slit box # 2"
*HW_R_OPT_NAME-4 "標準アッテネータ|Standard Attenuator"
*HW_R_OPT_NAME-5 "Cu Kβ|Cu K-beta"
*HW_R_OPT_NAME-6 "調整用受光スリット|Alignment receiving slit"
*HW_SAMPLE_HOLDER_ID "SMP0021"
*HW_SAMPLE_HOLDER_NAME "χφZクレードル|Chi phi Z cradle"
*HW_XG_CURRENT_MAX "200"
*HW_XG_CURRENT_MIN "10"
*HW_XG_CURRENT_RESOLUTION "1"
*HW_XG_CURRENT_UNIT "mA"
*HW_XG_FOCUS "0.4mm x 8mm"
*HW_XG_FOCUS_TYPE "Normal"
*HW_XG_ID "1700"
*HW_XG_NAME "9kW 開放管(45kV 200mA ID:1700)|9kW Rotating anode(45kV 200mA ID:1700)"
*HW_XG_TARGET_ATOMIC_NUMBER "29.0000000000"
*HW_XG_TARGET_NAME "Cu"
*HW_XG_TYPE "Rota"
*HW_XG_VOLTAGE_MAX "45"
*HW_XG_VOLTAGE_MIN "20"
*HW_XG_VOLTAGE_RESOLUTION "1"
*HW_XG_VOLTAGE_UNIT "kV"
*HW_XG_WATT_MAX "9.00"
*HW_XG_WATT_UNIT "kW"
*HW_XG_WAVE_LENGTH_ALPHA1 "1.540593"
*HW_XG_WAVE_LENGTH_ALPHA2 "1.544414"
*HW_XG_WAVE_LENGTH_BETA "1.392250"
*MEAS_COND_AXIS_NAME-0 "Theta/2-Theta"
*MEAS_COND_AXIS_NAME-1 "2-Theta"
*MEAS_COND_AXIS_NAME-2 "Omega"
*MEAS_COND_AXIS_NAME-3 "Chi"
*MEAS_COND_AXIS_NAME-4 "Phi"
*MEAS_COND_AXIS_NAME-5 "Z"
*MEAS_COND_AXIS_NAME-6 "2-Theta/Omega"
*MEAS_COND_AXIS_NAME-7 "Theta_s"
*MEAS_COND_AXIS_NAME-8 "Theta_d"
*MEAS_COND_AXIS_NAME-9 "Ts"
*MEAS_COND_AXIS_NAME-10 "CBO selection slit"
*MEAS_COND_AXIS_NAME-11 "M"
*MEAS_COND_AXIS_NAME-12 "Incident parallel slit"
*MEAS_COND_AXIS_NAME-13 "Incident slit"
*MEAS_COND_AXIS_NAME-14 ""
*MEAS_COND_AXIS_NAME-15 "Zs"
*MEAS_COND_AXIS_NAME-16 "Incident optical device"
*MEAS_COND_AXIS_NAME-17 "Omega_m"
*MEAS_COND_AXIS_NAME-18 "Length limiting slit"
*MEAS_COND_AXIS_NAME-19 "Center slit"
*MEAS_COND_AXIS_NAME-20 "Filter"
*MEAS_COND_AXIS_NAME-21 "Receiving slit # 1"
*MEAS_COND_AXIS_NAME-22 "Receiving slit # 2"
*MEAS_COND_AXIS_NAME-23 "Receiving optical device"
*MEAS_COND_AXIS_NAME-24 "Receiving parallel slit"
*MEAS_COND_AXIS_NAME-25 "Alignment receiving slit"
*MEAS_COND_AXIS_NAME-26 ""
*MEAS_COND_AXIS_NAME-27 ""
*MEAS_COND_AXIS_NAME-28 "Zd"
*MEAS_COND_AXIS_NAME-29 "Attenuator"
*MEAS_COND_AXIS_NAME-30 "Diffracted beam monochromator"
*MEAS_COND_AXIS_NAME-31 "Monochromator slit"
*MEAS_COND_AXIS_NAME-32 "Primary beam"
*MEAS_COND_AXIS_NAME-33 ""
*MEAS_COND_AXIS_NAME-34 ""
*MEAS_COND_AXIS_NAME-35 "PHA"
*MEAS_COND_AXIS_NAME_INTERNAL-0 "TwoThetaTheta"
*MEAS_COND_AXIS_NAME_INTERNAL-1 "TwoTheta"
*MEAS_COND_AXIS_NAME_INTERNAL-2 "Omega"
*MEAS_COND_AXIS_NAME_INTERNAL-3 "Chi"
*MEAS_COND_AXIS_NAME_INTERNAL-4 "Phi"
*MEAS_COND_AXIS_NAME_INTERNAL-5 "Z"
*MEAS_COND_AXIS_NAME_INTERNAL-6 "TwoThetaOmega"
*MEAS_COND_AXIS_NAME_INTERNAL-7 "ThetaS"
*MEAS_COND_AXIS_NAME_INTERNAL-8 "ThetaD"
*MEAS_COND_AXIS_NAME_INTERNAL-9 "Ts"
*MEAS_COND_AXIS_NAME_INTERNAL-10 "CBO"
*MEAS_COND_AXIS_NAME_INTERNAL-11 "CBO-M"
*MEAS_COND_AXIS_NAME_INTERNAL-12 "IncidentSollerSlit"
*MEAS_COND_AXIS_NAME_INTERNAL-13 "IncidentSlitBox"
*MEAS_COND_AXIS_NAME_INTERNAL-14 "IncidentSlitBox-_Axis"
*MEAS_COND_AXIS_NAME_INTERNAL-15 "Zs"
*MEAS_COND_AXIS_NAME_INTERNAL-16 "IncidentMonochromator"
*MEAS_COND_AXIS_NAME_INTERNAL-17 "IncidentMonochromator-OmegaM"
*MEAS_COND_AXIS_NAME_INTERNAL-18 "IncidentAxdSlit"
*MEAS_COND_AXIS_NAME_INTERNAL-19 "CenterSlit"
*MEAS_COND_AXIS_NAME_INTERNAL-20 "Filter"
*MEAS_COND_AXIS_NAME_INTERNAL-21 "ReceivingSlitBox1"
*MEAS_COND_AXIS_NAME_INTERNAL-22 "ReceivingSlitBox2"
*MEAS_COND_AXIS_NAME_INTERNAL-23 "ReceivingOptics"
*MEAS_COND_AXIS_NAME_INTERNAL-24 "ReceivingSollerSlit"
*MEAS_COND_AXIS_NAME_INTERNAL-25 "ReceivingAxdSlit"
*MEAS_COND_AXIS_NAME_INTERNAL-26 "ReceivingSlitBox1-_Axis"
*MEAS_COND_AXIS_NAME_INTERNAL-27 "ReceivingSlitBox2-_Axis"
*MEAS_COND_AXIS_NAME_INTERNAL-28 "ReceivingSlitBox2-Zd"
*MEAS_COND_AXIS_NAME_INTERNAL-29 "Attenuator"
*MEAS_COND_AXIS_NAME_INTERNAL-30 "CounterMonochromator"
*MEAS_COND_AXIS_NAME_INTERNAL-31 "CounterSlit"
*MEAS_COND_AXIS_NAME_INTERNAL-32 "IncidentPrimary"
*MEAS_COND_AXIS_NAME_INTERNAL-33 "AlphaR"
*MEAS_COND_AXIS_NAME_INTERNAL-34 "BetaR"
*MEAS_COND_AXIS_NAME_INTERNAL-35 "PHA"
*MEAS_COND_AXIS_NAME_MAGICNO-0 "83951616.0000000000"
*MEAS_COND_AXIS_NAME_MAGICNO-1 "268632064.0000000000"
*MEAS_COND_AXIS_NAME_MAGICNO-2 "268500992.0000000000"
*MEAS_COND_AXIS_NAME_MAGICNO-3 "268500992.0000000000"
*MEAS_COND_AXIS_NAME_MAGICNO-4 "268500992.0000000000"
*MEAS_COND_AXIS_NAME_MAGICNO-5 "285278208.0000000000"
*MEAS_COND_AXIS_NAME_MAGICNO-6 "83951616.0000000000"
*MEAS_COND_AXIS_NAME_MAGICNO-7 "131072.0000000000"
*MEAS_COND_AXIS_NAME_MAGICNO-8 "131072.0000000000"
*MEAS_COND_AXIS_NAME_MAGICNO-9 "318898176.0000000000"
*MEAS_COND_AXIS_NAME_MAGICNO-10 "20971521.0000000000"
*MEAS_COND_AXIS_NAME_MAGICNO-11 "285343744.0000000000"
*MEAS_COND_AXIS_NAME_MAGICNO-12 "20971521.0000000000"
*MEAS_COND_AXIS_NAME_MAGICNO-13 "22020097.0000000000"
*MEAS_COND_AXIS_NAME_MAGICNO-14 "25165824.0000000000"
*MEAS_COND_AXIS_NAME_MAGICNO-15 "318898176.0000000000"
*MEAS_COND_AXIS_NAME_MAGICNO-16 "20971521.0000000000"
*MEAS_COND_AXIS_NAME_MAGICNO-17 "285343744.0000000000"
*MEAS_COND_AXIS_NAME_MAGICNO-18 "20971521.0000000000"
*MEAS_COND_AXIS_NAME_MAGICNO-19 "20971521.0000000000"
*MEAS_COND_AXIS_NAME_MAGICNO-20 "20971521.0000000000"
*MEAS_COND_AXIS_NAME_MAGICNO-21 "23068673.0000000000"
*MEAS_COND_AXIS_NAME_MAGICNO-22 "23068673.0000000000"
*MEAS_COND_AXIS_NAME_MAGICNO-23 "20971521.0000000000"
*MEAS_COND_AXIS_NAME_MAGICNO-24 "20971521.0000000000"
*MEAS_COND_AXIS_NAME_MAGICNO-25 "20971521.0000000000"
*MEAS_COND_AXIS_NAME_MAGICNO-26 "25165824.0000000000"
*MEAS_COND_AXIS_NAME_MAGICNO-27 "25165824.0000000000"
*MEAS_COND_AXIS_NAME_MAGICNO-28 "285343744.0000000000"
*MEAS_COND_AXIS_NAME_MAGICNO-29 "17301505.0000000000"
*MEAS_COND_AXIS_NAME_MAGICNO-30 "20971521.0000000000"
*MEAS_COND_AXIS_NAME_MAGICNO-31 "20971521.0000000000"
*MEAS_COND_AXIS_NAME_MAGICNO-32 "20971521.0000000000"
*MEAS_COND_AXIS_NAME_MAGICNO-33 "8388608.0000000000"
*MEAS_COND_AXIS_NAME_MAGICNO-34 "8388608.0000000000"
*MEAS_COND_AXIS_NAME_MAGICNO-35 "0.0000000000"
*MEAS_COND_AXIS_OFFSET-0 "-"
*MEAS_COND_AXIS_OFFSET-1 "0.9117000000"
*MEAS_COND_AXIS_OFFSET-2 "1.1463000000"
*MEAS_COND_AXIS_OFFSET-3 "0.0000000000"
*MEAS_COND_AXIS_OFFSET-4 "0.0000000000"
*MEAS_COND_AXIS_OFFSET-5 "-"
*MEAS_COND_AXIS_OFFSET-6 "-"
*MEAS_COND_AXIS_OFFSET-7 "1.1463000000"
*MEAS_COND_AXIS_OFFSET-8 "-0.2346000000"
*MEAS_COND_AXIS_OFFSET-9 "-"
*MEAS_COND_AXIS_OFFSET-10 "-"
*MEAS_COND_AXIS_OFFSET-11 "-"
*MEAS_COND_AXIS_OFFSET-12 "-"
*MEAS_COND_AXIS_OFFSET-13 "-"
*MEAS_COND_AXIS_OFFSET-14 "-"
*MEAS_COND_AXIS_OFFSET-15 "-"
*MEAS_COND_AXIS_OFFSET-16 "-"
*MEAS_COND_AXIS_OFFSET-17 "-"
*MEAS_COND_AXIS_OFFSET-18 "-"
*MEAS_COND_AXIS_OFFSET-19 "-"
*MEAS_COND_AXIS_OFFSET-20 "-"
*MEAS_COND_AXIS_OFFSET-21 "-"
*MEAS_COND_AXIS_OFFSET-22 "-"
*MEAS_COND_AXIS_OFFSET-23 "-"
*MEAS_COND_AXIS_OFFSET-24 "-"
*MEAS_COND_AXIS_OFFSET-25 "-"
*MEAS_COND_AXIS_OFFSET-26 "-"
*MEAS_COND_AXIS_OFFSET-27 "-"
*MEAS_COND_AXIS_OFFSET-28 "-"
*MEAS_COND_AXIS_OFFSET-29 "-"
*MEAS_COND_AXIS_OFFSET-30 "-"
*MEAS_COND_AXIS_OFFSET-31 "-"
*MEAS_COND_AXIS_OFFSET-32 "-"
*MEAS_COND_AXIS_OFFSET-33 "0.0000000000"
*MEAS_COND_AXIS_OFFSET-34 "0.0000000000"
*MEAS_COND_AXIS_OFFSET-35 "-"
*MEAS_COND_AXIS_POSITION-0 "-0.0008000000"
*MEAS_COND_AXIS_POSITION-1 "-0.0008000000"
*MEAS_COND_AXIS_POSITION-2 "-0.0004000000"
*MEAS_COND_AXIS_POSITION-3 "0.0000000000"
*MEAS_COND_AXIS_POSITION-4 "0.0000000000"
*MEAS_COND_AXIS_POSITION-5 "-1.4289000000"
*MEAS_COND_AXIS_POSITION-6 "-0.0008000000"
*MEAS_COND_AXIS_POSITION-7 "-0.0004000000"
*MEAS_COND_AXIS_POSITION-8 "-0.0004000000"
*MEAS_COND_AXIS_POSITION-9 "-4.8858800000"
*MEAS_COND_AXIS_POSITION-10 "PB"
*MEAS_COND_AXIS_POSITION-11 "0.0000000000"
*MEAS_COND_AXIS_POSITION-12 "Soller_slit_open_s"
*MEAS_COND_AXIS_POSITION-13 "0.250mm"
*MEAS_COND_AXIS_POSITION-14 "0.2500000000"
*MEAS_COND_AXIS_POSITION-15 "-1.8040600000"
*MEAS_COND_AXIS_POSITION-16 "Ge(220)x2"
*MEAS_COND_AXIS_POSITION-17 "0.0000000000"
*MEAS_COND_AXIS_POSITION-18 "2.0mm"
*MEAS_COND_AXIS_POSITION-19 "None"
*MEAS_COND_AXIS_POSITION-20 "None"
*MEAS_COND_AXIS_POSITION-21 "0.250mm"
*MEAS_COND_AXIS_POSITION-22 "0.250mm"
*MEAS_COND_AXIS_POSITION-23 "No_unit"
*MEAS_COND_AXIS_POSITION-24 "Soller_slit_5.0deg"
*MEAS_COND_AXIS_POSITION-25 "None"
*MEAS_COND_AXIS_POSITION-26 "0.2500000000"
*MEAS_COND_AXIS_POSITION-27 "0.2500000000"
*MEAS_COND_AXIS_POSITION-28 "0.0928100000"
*MEAS_COND_AXIS_POSITION-29 "1/10000"
*MEAS_COND_AXIS_POSITION-30 "None"
*MEAS_COND_AXIS_POSITION-31 "None"
*MEAS_COND_AXIS_POSITION-32 "None"
*MEAS_COND_AXIS_POSITION-33 "0.0000000000"
*MEAS_COND_AXIS_POSITION-34 "0.0000000000"
*MEAS_COND_AXIS_POSITION-35 "34.0000000000"
*MEAS_COND_AXIS_UNIT-0 "deg"
*MEAS_COND_AXIS_UNIT-1 "deg"
*MEAS_COND_AXIS_UNIT-2 "deg"
*MEAS_COND_AXIS_UNIT-3 "deg"
*MEAS_COND_AXIS_UNIT-4 "deg"
*MEAS_COND_AXIS_UNIT-5 "mm"
*MEAS_COND_AXIS_UNIT-6 "deg"
*MEAS_COND_AXIS_UNIT-7 "deg"
*MEAS_COND_AXIS_UNIT-8 "deg"
*MEAS_COND_AXIS_UNIT-9 "mm"
*MEAS_COND_AXIS_UNIT-10 ""
*MEAS_COND_AXIS_UNIT-11 "pulse"
*MEAS_COND_AXIS_UNIT-12 ""
*MEAS_COND_AXIS_UNIT-13 ""
*MEAS_COND_AXIS_UNIT-14 "mm"
*MEAS_COND_AXIS_UNIT-15 "mm"
*MEAS_COND_AXIS_UNIT-16 ""
*MEAS_COND_AXIS_UNIT-17 "pulse"
*MEAS_COND_AXIS_UNIT-18 ""
*MEAS_COND_AXIS_UNIT-19 ""
*MEAS_COND_AXIS_UNIT-20 ""
*MEAS_COND_AXIS_UNIT-21 ""
*MEAS_COND_AXIS_UNIT-22 ""
*MEAS_COND_AXIS_UNIT-23 ""
*MEAS_COND_AXIS_UNIT-24 ""
*MEAS_COND_AXIS_UNIT-25 ""
*MEAS_COND_AXIS_UNIT-26 "mm"
*MEAS_COND_AXIS_UNIT-27 "mm"
*MEAS_COND_AXIS_UNIT-28 "mm"
*MEAS_COND_AXIS_UNIT-29 ""
*MEAS_COND_AXIS_UNIT-30 ""
*MEAS_COND_AXIS_UNIT-31 ""
*MEAS_COND_AXIS_UNIT-32 ""
*MEAS_COND_AXIS_UNIT-33 "deg"
*MEAS_COND_AXIS_UNIT-34 "deg"
*MEAS_COND_AXIS_UNIT-35 "div"
*MEAS_COND_COUNTER_CNTLOSS_CORR "0.0000000000"
*MEAS_COND_COUNTER_PHABASE "34.0000000000"
*MEAS_COND_COUNTER_PHAWINDOW "19.0000000000"
*MEAS_COND_COUNTER_PHA_UNIT "div"
*MEAS_COND_COUNTER_TAUDIFF "2.0000000000"
*MEAS_COND_COUNTER_TAUINT "0.1000000000"
*MEAS_COND_IRRADIATION_MODE "OFF"
*MEAS_COND_IRRADIATION_WIDTH ""
*MEAS_COND_OPT_ATTR "High resolution parallel beam Ge(220)x2/RS"
*MEAS_COND_OPT_NAME "@High resolution PB-Ge(220)x2"
*MEAS_COND_UNSYMMETRIC_MODE "OFF"
*MEAS_COND_XG_CURRENT "200.0000000000"
*MEAS_COND_XG_VOLTAGE "45.0000000000"
*MEAS_COND_XG_WAVE_TYPE "Ka1"
*MEAS_DATA_COUNT "3001.0000000000"
*MEAS_SCAN_AXIS_X "2-Theta/Omega"
*MEAS_SCAN_AXIS_X_INTERNAL "TwoThetaOmega"
*MEAS_SCAN_END_TIME "11/07/23 10:31:35"
*MEAS_SCAN_MODE "CONTINUOUS"
*MEAS_SCAN_MONITOR "0"
*MEAS_SCAN_RESOLUTION_X "0.0002"
*MEAS_SCAN_SPEED "0.500000"
*MEAS_SCAN_SPEED_UNIT "deg/min"
*MEAS_SCAN_SPEED_USER "0.500000"
*MEAS_SCAN_START "0.0000000000"
*MEAS_SCAN_START_TIME "11/07/23 10:19:03"
*MEAS_SCAN_STEP "0.0020000000"
*MEAS_SCAN_STOP "6.0000000000"
*MEAS_SCAN_UNIT_X "deg"
*MEAS_SCAN_UNIT_Y "counts"
*RAS_HEADER_END
*RAS_INT_START
0.0000 5140122.0000 1.0000
0.0020 5168809.0000 1.0000
0.0040 5182877.0000 1.0000
0.0060 5261904.5000 1.0000
0.0080 5272249.0000 1.0000
0.0100 5233079.5000 1.0000
0.0120 5238320.5000 1.0000
0.0140 5323003.5000 1.0000
0.0160 5367413.0000 1.0000
0.0180 5178601.5000 1.0000
0.0200 5366310.0000 1.0000
0.0220 5229080.0000 1.0000
0.0240 5153500.0000 1.0000
0.0260 4998064.5000 1.0000
0.0280 5047578.0000 1.0000
0.0300 4896004.0000 1.0000
0.0320 4763050.0000 1.0000
0.0340 4816976.5000 1.0000
0.0360 4507761.0000 1.0000
0.0380 4314398.0000 1.0000
0.0400 4145860.2500 1.0000
0.0420 3719275.2500 1.0000
0.0440 3546738.0000 1.0000
0.0460 3252279.7500 1.0000
0.0480 2840728.0000 1.0000
0.0500 2489998.7500 1.0000
0.0520 2285602.0000 1.0000
0.0540 1974731.3750 1.0000
0.0560 1728407.1250 1.0000
0.0580 1444430.8750 1.0000
0.0600 1163407.3750 1.0000
0.0620 950954.2500 1.0000
0.0640 776923.4375 1.0000
0.0660 630322.6250 1.0000
0.0680 497820.2813 1.0000
0.0700 397291.0000 1.0000
0.0720 304224.3438 1.0000
0.0740 251040.1875 1.0000
0.0760 206413.4688 1.0000
0.0780 175699.0781 1.0000
0.0800 146012.4844 1.0000
0.0820 125784.4844 1.0000
0.0840 109265.4531 1.0000
0.0860 98779.0625 1.0000
0.0880 91696.2891 1.0000
0.0900 84732.6719 1.0000
0.0920 82215.3438 1.0000
0.0940 74812.3125 1.0000
0.0960 75639.0078 1.0000
0.0980 72466.2813 1.0000
0.1000 74462.2734 1.0000
0.1020 77210.4766 1.0000
0.1040 74238.8438 1.0000
0.1060 75557.0859 1.0000
0.1080 76666.7969 1.0000
0.1100 76123.1094 1.0000
0.1120 75370.8906 1.0000
0.1140 77992.4922 1.0000
0.1160 75408.1328 1.0000
0.1180 75862.4453 1.0000
0.1200 80159.7734 1.0000
0.1220 79787.3906 1.0000
0.1240 82423.8828 1.0000
0.1260 85410.4141 1.0000
0.1280 88173.5156 1.0000
0.1300 84687.9844 1.0000
0.1320 87860.7109 1.0000
0.1340 89983.3125 1.0000
0.1360 90899.3828 1.0000
0.1380 88478.8750 1.0000
0.1400 93744.4063 1.0000
0.1420 95286.0859 1.0000
0.1440 96917.1328 1.0000
0.1460 95196.7109 1.0000
0.1480 96619.2266 1.0000
0.1500 97110.7813 1.0000
0.1520 97334.2109 1.0000
0.1540 100432.4609 1.0000
0.1560 102205.0156 1.0000
0.1580 101519.8281 1.0000
0.1600 108773.9063 1.0000
0.1620 104811.7188 1.0000
0.1640 104759.5859 1.0000
0.1660 107232.2266 1.0000
0.1680 113056.3359 1.0000
0.1700 109652.7344 1.0000
0.1720 112013.6641 1.0000
0.1740 114799.1016 1.0000
0.1760 113629.8125 1.0000
0.1780 118441.0391 1.0000
0.1800 118172.9141 1.0000
0.1820 115558.7734 1.0000
0.1840 120660.4609 1.0000
0.1860 121256.2734 1.0000
0.1880 120355.1016 1.0000
0.1900 120645.5625 1.0000
0.1920 125047.1641 1.0000
0.1940 123550.1719 1.0000
0.1960 128480.5547 1.0000
0.1980 127601.7344 1.0000
0.2000 126566.5000 1.0000
0.2020 131578.8125 1.0000
0.2040 133127.9375 1.0000
0.2060 129404.0781 1.0000
0.2080 135622.9219 1.0000
0.2100 135079.2344 1.0000
0.2120 132658.7344 1.0000
0.2140 135883.5938 1.0000
0.2160 138259.4219 1.0000
0.2180 137194.3906 1.0000
0.2200 142251.3906 1.0000
0.2220 141044.8594 1.0000
0.2240 144441.0156 1.0000
0.2260 146623.2031 1.0000
0.2280 143517.5000 1.0000
0.2300 148701.1094 1.0000
0.2320 146816.8281 1.0000
0.2340 148663.8750 1.0000
0.2360 155180.6250 1.0000
0.2380 152253.6719 1.0000
0.2400 153348.4844 1.0000
0.2420 151181.2031 1.0000
0.2440 155083.8125 1.0000
0.2460 155716.8594 1.0000
0.2480 155009.3281 1.0000
0.2500 157943.7188 1.0000
0.2520 157861.7969 1.0000
0.2540 166203.2500 1.0000
0.2560 162017.6250 1.0000
0.2580 159999.2969 1.0000
0.2600 158762.9688 1.0000
0.2620 165823.4063 1.0000
0.2640 168370.5313 1.0000
0.2660 168638.6406 1.0000
0.2680 169703.6719 1.0000
0.2700 166553.2813 1.0000
0.2720 172652.9688 1.0000
0.2740 172057.1563 1.0000
0.2760 169733.4688 1.0000
0.2780 176548.1250 1.0000
0.2800 181843.4531 1.0000
0.2820 180473.0781 1.0000
0.2840 181091.2344 1.0000
0.2860 179028.2188 1.0000
0.2880 176153.3906 1.0000
0.2900 180137.9219 1.0000
0.2920 183936.2500 1.0000
0.2940 177925.9531 1.0000
0.2960 181121.0156 1.0000
0.2980 184934.2500 1.0000
0.3000 189693.3438 1.0000
0.3020 187861.2031 1.0000
0.3040 188687.9063 1.0000
0.3060 189983.7969 1.0000
0.3080 187883.5469 1.0000
0.3100 194534.3594 1.0000
0.3120 195874.9531 1.0000
0.3140 190579.6250 1.0000
0.3160 193968.3281 1.0000
0.3180 199576.4688 1.0000
0.3200 196671.8594 1.0000
0.3220 199561.5625 1.0000
0.3240 199226.4219 1.0000
0.3260 206108.1094 1.0000
0.3280 204372.7969 1.0000
0.3300 203903.5938 1.0000
0.3320 201155.3750 1.0000
0.3340 202361.9063 1.0000
0.3360 206562.4219 1.0000
0.3380 209712.8125 1.0000
0.3400 210695.9063 1.0000
0.3420 211336.4063 1.0000
0.3440 211507.7031 1.0000
0.3460 212900.4375 1.0000
0.3480 217294.5781 1.0000
0.3500 211768.3750 1.0000
0.3520 213034.4844 1.0000
0.3540 216162.5313 1.0000
0.3560 220497.0938 1.0000
0.3580 223334.6719 1.0000
0.3600 216162.5313 1.0000
0.3620 217413.7500 1.0000
0.3640 220318.3594 1.0000
0.3660 228518.2969 1.0000
0.3680 228965.1563 1.0000
0.3700 232018.7188 1.0000
0.3720 229203.4688 1.0000
0.3740 226544.6563 1.0000
0.3760 231303.7344 1.0000
0.3780 229925.9063 1.0000
0.3800 233329.5156 1.0000
0.3820 234275.3750 1.0000
0.3840 229717.3750 1.0000
0.3860 237112.9531 1.0000
0.3880 242721.0781 1.0000
0.3900 234841.4063 1.0000
0.3920 241574.1406 1.0000
0.3940 242080.5938 1.0000
0.3960 240628.2813 1.0000
0.3980 240203.7656 1.0000
0.4000 242021.0000 1.0000
0.4020 248880.3438 1.0000
0.4040 244277.6563 1.0000
0.4060 248284.5313 1.0000
0.4080 247018.4063 1.0000
0.4100 250332.6563 1.0000
0.4120 242728.5313 1.0000
0.4140 249021.8594 1.0000
0.4160 247204.6094 1.0000
0.4180 249878.3438 1.0000
0.4200 250213.4844 1.0000
0.4220 249632.5625 1.0000
0.4240 256968.5625 1.0000
0.4260 257445.2188 1.0000
0.4280 260893.5156 1.0000
0.4300 260327.4844 1.0000
0.4320 265622.8125 1.0000
0.4340 260193.4219 1.0000
0.4360 257057.9375 1.0000
0.4380 265712.1875 1.0000
0.4400 255754.5938 1.0000
0.4420 261288.2344 1.0000
0.4440 257035.5938 1.0000
0.4460 262993.7500 1.0000
0.4480 264118.3750 1.0000
0.4500 263693.8438 1.0000
0.4520 268140.1563 1.0000
0.4540 266017.5313 1.0000
0.4560 269413.6875 1.0000
0.4580 272519.4063 1.0000
0.4600 268937.0313 1.0000
0.4620 274723.9063 1.0000
0.4640 269540.3125 1.0000
0.4660 274120.6563 1.0000
0.4680 272802.4063 1.0000
0.4700 267931.6250 1.0000
0.4720 275602.7500 1.0000
0.4740 277516.8125 1.0000
0.4760 275141.0000 1.0000
0.4780 278745.6875 1.0000
0.4800 278552.0625 1.0000
0.4820 281776.9063 1.0000
0.4840 273703.5938 1.0000
0.4860 285672.0625 1.0000
0.4880 284033.5625 1.0000
0.4900 286416.8438 1.0000
0.4920 288293.6563 1.0000
0.4940 285835.9063 1.0000
0.4960 283489.8750 1.0000
0.4980 291697.2813 1.0000
0.5000 285359.2813 1.0000
0.5020 285269.8750 1.0000
0.5040 291555.7500 1.0000
0.5060 287653.1563 1.0000
0.5080 291920.6875 1.0000
0.5100 288651.1563 1.0000
0.5120 288040.4375 1.0000
0.5140 290811.0000 1.0000
0.5160 289261.8750 1.0000
0.5180 287377.5938 1.0000
0.5200 289529.9688 1.0000
0.5220 297126.6563 1.0000
0.5240 290379.0313 1.0000
0.5260 301431.4375 1.0000
0.5280 297193.6875 1.0000
0.5300 297223.4688 1.0000
0.5320 296910.6875 1.0000
