*RAS_DATA_START
*RAS_HEADER_START
*DISP_FMT_X "%.4f"
*DISP_FMT_Y "%.0f"
*DISP_FULLSCALE "29418229.3500000050"
*DISP_LINE_COLOR "255.0000000000"
*DISP_LINE_STYLE "0.0000000000"
*DISP_LINE_WIDTH "0.2500000000"
*DISP_NOTE "Collected Data-1"
*DISP_OFFSET_Y "0.0000000000"
*DISP_PEAKSEARCH_UNIT_Y "cps"
*DISP_RANGE_BOTTOM "0.0100000000"
*DISP_RANGE_LEFT "-0.0006000000"
*DISP_RANGE_LOGCUTOFF "0.0100000000"
*DISP_RANGE_RIGHT "6.0006000000"
*DISP_RANGE_TOP "29418229.3500000050"
*DISP_SCALE_MODE_Y "2.0000000000"
*DISP_TAB_NAME "2-Theta/Omega"
*DISP_TITLE_Y "Intensity"
*DISP_UNIT_Y "cps"
*DISP_WINDOW_NAME "MSG_MACROENGINE"
*FILE_COMMENT " "
*FILE_MD5 ""
*FILE_MEMO " "
*FILE_OPERATOR "Administrator"
*FILE_PART_ID "MEAS_KHP2_00055"
*FILE_SAMPLE "CWO I6"
*FILE_TYPE "RAS_RAW"
*FILE_USERGROUP "System Manager"
*FILE_VERSION "1.0000000000"
*HW_ATTACHMENT_ID "ATT0025"
*HW_ATTACHMENT_NAME "標準|Standard"
*HW_COUNTER_ID-0 "CUT0025"
*HW_COUNTER_ID-1 "CUT0020"
*HW_COUNTER_ID-2 "CUT0020"
*HW_COUNTER_ID-3 "CSL0021"
*HW_COUNTER_ID-4 "CMC0021"
*HW_COUNTER_NAME-0 "D/teX Ultra|D/teX Ultra"
*HW_COUNTER_NAME-1 "None|None"
*HW_COUNTER_NAME-2 "None|None"
*HW_COUNTER_NAME-3 "BBM|BBM"
*HW_COUNTER_NAME-4 "検出器モノクロメータ|Detector monochromator"
*HW_COUNTER_SELECT_NAME "D/teX Ultra|D/teX Ultra"
*HW_GONIOMETER_ID "GON0023"
*HW_GONIOMETER_NAME "SmartLab|SmartLab"
*HW_GONIOMETER_RADIUS-0 "90.0"
*HW_GONIOMETER_RADIUS-1 "114.0"
*HW_GONIOMETER_RADIUS-2 "190.0"
*HW_GONIOMETER_RADIUS-3 "300.0"
*HW_GONIOMETER_RADIUS-4 "187.0"
*HW_GONIOMETER_RADIUS-5 "300.0"
*HW_GONIOMETER_RADIUS-6 "113.0"
*HW_GONIOMETER_RADIUS-7 "331.0"
*HW_I_OPT_ID-0 "CBO0021"
*HW_I_OPT_ID-1 "ICR0021"
*HW_I_OPT_ID-2 "ISL0021"
*HW_I_OPT_ID-3 "ISO0021"
*HW_I_OPT_ID-4 "IAD0021"
*HW_I_OPT_ID-5 "IPR0001"
*HW_I_OPT_NAME-0 "CBOユニット|CBO unit"
*HW_I_OPT_NAME-1 "標準入射光学ユニット|Standard incident optical unit"
*HW_I_OPT_NAME-2 "標準入射スリットボックス|Standard incident slit box"
*HW_I_OPT_NAME-3 "入射平行スリット|Incident parallel slit"
*HW_I_OPT_NAME-4 "長手制限スリット|Length limiting slit"
*HW_I_OPT_NAME-5 "None|None"
*HW_R_ATTENUATER_AUTOMODE "1"
*HW_R_OPT_ID-0 "RSS0021"
*HW_R_OPT_ID-1 "RCR0023"
*HW_R_OPT_ID-2 "RSO0021"
*HW_R_OPT_ID-3 "RRS0021"
*HW_R_OPT_ID-4 "ATN0021"
*HW_R_OPT_ID-5 "RFL0021"
*HW_R_OPT_ID-6 "RAD0021"
*HW_R_OPT_NAME-0 "標準受光スリットボックス1|Standard receiving slit box # 1"
*HW_R_OPT_NAME-1 "標準受光光学ユニット1|Standard receiving unit # 1"
*HW_R_OPT_NAME-2 "標準受光光学ユニット2|Standard receiving optical unit # 2"
*HW_R_OPT_NAME-3 "標準受光スリットボックス2|Standard receiving slit box # 2"
*HW_R_OPT_NAME-4 "標準アッテネータ|Standard Attenuator"
*HW_R_OPT_NAME-5 "Cu Kβ|Cu K-beta"
*HW_R_OPT_NAME-6 "調整用受光スリット|Alignment receiving slit"
*HW_SAMPLE_HOLDER_ID "SMP0021"
*HW_SAMPLE_HOLDER_NAME "χφZクレードル|Chi phi Z cradle"
*HW_XG_CURRENT_MAX "200"
*HW_XG_CURRENT_MIN "10"
*HW_XG_CURRENT_RESOLUTION "1"
*HW_XG_CURRENT_UNIT "mA"
*HW_XG_FOCUS "0.4mm x 8mm"
*HW_XG_FOCUS_TYPE "Normal"
*HW_XG_ID "1700"
*HW_XG_NAME "9kW 開放管(45kV 200mA ID:1700)|9kW Rotating anode(45kV 200mA ID:1700)"
*HW_XG_TARGET_ATOMIC_NUMBER "29.0000000000"
*HW_XG_TARGET_NAME "Cu"
*HW_XG_TYPE "Rota"
*HW_XG_VOLTAGE_MAX "45"
*HW_XG_VOLTAGE_MIN "20"
*HW_XG_VOLTAGE_RESOLUTION "1"
*HW_XG_VOLTAGE_UNIT "kV"
*HW_XG_WATT_MAX "9.00"
*HW_XG_WATT_UNIT "kW"
*HW_XG_WAVE_LENGTH_ALPHA1 "1.540593"
*HW_XG_WAVE_LENGTH_ALPHA2 "1.544414"
*HW_XG_WAVE_LENGTH_BETA "1.392250"
*MEAS_COND_AXIS_NAME-0 "Theta/2-Theta"
*MEAS_COND_AXIS_NAME-1 "2-Theta"
*MEAS_COND_AXIS_NAME-2 "Omega"
*MEAS_COND_AXIS_NAME-3 "Chi"
*MEAS_COND_AXIS_NAME-4 "Phi"
*MEAS_COND_AXIS_NAME-5 "Z"
*MEAS_COND_AXIS_NAME-6 "2-Theta/Omega"
*MEAS_COND_AXIS_NAME-7 "Theta_s"
*MEAS_COND_AXIS_NAME-8 "Theta_d"
*MEAS_COND_AXIS_NAME-9 "Ts"
*MEAS_COND_AXIS_NAME-10 "CBO selection slit"
*MEAS_COND_AXIS_NAME-11 "M"
*MEAS_COND_AXIS_NAME-12 "Incident parallel slit"
*MEAS_COND_AXIS_NAME-13 "Incident slit"
*MEAS_COND_AXIS_NAME-14 ""
*MEAS_COND_AXIS_NAME-15 "Zs"
*MEAS_COND_AXIS_NAME-16 "Incident optical device"
*MEAS_COND_AXIS_NAME-17 "Omega_m"
*MEAS_COND_AXIS_NAME-18 "Length limiting slit"
*MEAS_COND_AXIS_NAME-19 "Center slit"
*MEAS_COND_AXIS_NAME-20 "Filter"
*MEAS_COND_AXIS_NAME-21 "Receiving slit # 1"
*MEAS_COND_AXIS_NAME-22 "Receiving slit # 2"
*MEAS_COND_AXIS_NAME-23 "Receiving optical device"
*MEAS_COND_AXIS_NAME-24 "Receiving parallel slit"
*MEAS_COND_AXIS_NAME-25 "Alignment receiving slit"
*MEAS_COND_AXIS_NAME-26 ""
*MEAS_COND_AXIS_NAME-27 ""
*MEAS_COND_AXIS_NAME-28 "Zd"
*MEAS_COND_AXIS_NAME-29 "Attenuator"
*MEAS_COND_AXIS_NAME-30 "Diffracted beam monochromator"
*MEAS_COND_AXIS_NAME-31 "Monochromator slit"
*MEAS_COND_AXIS_NAME-32 "Primary beam"
*MEAS_COND_AXIS_NAME-33 ""
*MEAS_COND_AXIS_NAME-34 ""
*MEAS_COND_AXIS_NAME-35 "PHA"
*MEAS_COND_AXIS_NAME_INTERNAL-0 "TwoThetaTheta"
*MEAS_COND_AXIS_NAME_INTERNAL-1 "TwoTheta"
*MEAS_COND_AXIS_NAME_INTERNAL-2 "Omega"
*MEAS_COND_AXIS_NAME_INTERNAL-3 "Chi"
*MEAS_COND_AXIS_NAME_INTERNAL-4 "Phi"
*MEAS_COND_AXIS_NAME_INTERNAL-5 "Z"
*MEAS_COND_AXIS_NAME_INTERNAL-6 "TwoThetaOmega"
*MEAS_COND_AXIS_NAME_INTERNAL-7 "ThetaS"
*MEAS_COND_AXIS_NAME_INTERNAL-8 "ThetaD"
*MEAS_COND_AXIS_NAME_INTERNAL-9 "Ts"
*MEAS_COND_AXIS_NAME_INTERNAL-10 "CBO"
*MEAS_COND_AXIS_NAME_INTERNAL-11 "CBO-M"
*MEAS_COND_AXIS_NAME_INTERNAL-12 "IncidentSollerSlit"
*MEAS_COND_AXIS_NAME_INTERNAL-13 "IncidentSlitBox"
*MEAS_COND_AXIS_NAME_INTERNAL-14 "IncidentSlitBox-_Axis"
*MEAS_COND_AXIS_NAME_INTERNAL-15 "Zs"
*MEAS_COND_AXIS_NAME_INTERNAL-16 "IncidentMonochromator"
*MEAS_COND_AXIS_NAME_INTERNAL-17 "IncidentMonochromator-OmegaM"
*MEAS_COND_AXIS_NAME_INTERNAL-18 "IncidentAxdSlit"
*MEAS_COND_AXIS_NAME_INTERNAL-19 "CenterSlit"
*MEAS_COND_AXIS_NAME_INTERNAL-20 "Filter"
*MEAS_COND_AXIS_NAME_INTERNAL-21 "ReceivingSlitBox1"
*MEAS_COND_AXIS_NAME_INTERNAL-22 "ReceivingSlitBox2"
*MEAS_COND_AXIS_NAME_INTERNAL-23 "ReceivingOptics"
*MEAS_COND_AXIS_NAME_INTERNAL-24 "ReceivingSollerSlit"
*MEAS_COND_AXIS_NAME_INTERNAL-25 "ReceivingAxdSlit"
*MEAS_COND_AXIS_NAME_INTERNAL-26 "ReceivingSlitBox1-_Axis"
*MEAS_COND_AXIS_NAME_INTERNAL-27 "ReceivingSlitBox2-_Axis"
*MEAS_COND_AXIS_NAME_INTERNAL-28 "ReceivingSlitBox2-Zd"
*MEAS_COND_AXIS_NAME_INTERNAL-29 "Attenuator"
*MEAS_COND_AXIS_NAME_INTERNAL-30 "CounterMonochromator"
*MEAS_COND_AXIS_NAME_INTERNAL-31 "CounterSlit"
*MEAS_COND_AXIS_NAME_INTERNAL-32 "IncidentPrimary"
*MEAS_COND_AXIS_NAME_INTERNAL-33 "AlphaR"
*MEAS_COND_AXIS_NAME_INTERNAL-34 "BetaR"
*MEAS_COND_AXIS_NAME_INTERNAL-35 "PHA"
*MEAS_COND_AXIS_NAME_MAGICNO-0 "83951616.0000000000"
*MEAS_COND_AXIS_NAME_MAGICNO-1 "268632064.0000000000"
*MEAS_COND_AXIS_NAME_MAGICNO-2 "268500992.0000000000"
*MEAS_COND_AXIS_NAME_MAGICNO-3 "268500992.0000000000"
*MEAS_COND_AXIS_NAME_MAGICNO-4 "268500992.0000000000"
*MEAS_COND_AXIS_NAME_MAGICNO-5 "285278208.0000000000"
*MEAS_COND_AXIS_NAME_MAGICNO-6 "83951616.0000000000"
*MEAS_COND_AXIS_NAME_MAGICNO-7 "131072.0000000000"
*MEAS_COND_AXIS_NAME_MAGICNO-8 "131072.0000000000"
*MEAS_COND_AXIS_NAME_MAGICNO-9 "318898176.0000000000"
*MEAS_COND_AXIS_NAME_MAGICNO-10 "20971521.0000000000"
*MEAS_COND_AXIS_NAME_MAGICNO-11 "285343744.0000000000"
*MEAS_COND_AXIS_NAME_MAGICNO-12 "20971521.0000000000"
*MEAS_COND_AXIS_NAME_MAGICNO-13 "22020097.0000000000"
*MEAS_COND_AXIS_NAME_MAGICNO-14 "25165824.0000000000"
*MEAS_COND_AXIS_NAME_MAGICNO-15 "318898176.0000000000"
*MEAS_COND_AXIS_NAME_MAGICNO-16 "20971521.0000000000"
*MEAS_COND_AXIS_NAME_MAGICNO-17 "285343744.0000000000"
*MEAS_COND_AXIS_NAME_MAGICNO-18 "20971521.0000000000"
*MEAS_COND_AXIS_NAME_MAGICNO-19 "20971521.0000000000"
*MEAS_COND_AXIS_NAME_MAGICNO-20 "20971521.0000000000"
*MEAS_COND_AXIS_NAME_MAGICNO-21 "23068673.0000000000"
*MEAS_COND_AXIS_NAME_MAGICNO-22 "23068673.0000000000"
*MEAS_COND_AXIS_NAME_MAGICNO-23 "20971521.0000000000"
*MEAS_COND_AXIS_NAME_MAGICNO-24 "20971521.0000000000"
*MEAS_COND_AXIS_NAME_MAGICNO-25 "20971521.0000000000"
*MEAS_COND_AXIS_NAME_MAGICNO-26 "25165824.0000000000"
*MEAS_COND_AXIS_NAME_MAGICNO-27 "25165824.0000000000"
*MEAS_COND_AXIS_NAME_MAGICNO-28 "285343744.0000000000"
*MEAS_COND_AXIS_NAME_MAGICNO-29 "17301505.0000000000"
*MEAS_COND_AXIS_NAME_MAGICNO-30 "20971521.0000000000"
*MEAS_COND_AXIS_NAME_MAGICNO-31 "20971521.0000000000"
*MEAS_COND_AXIS_NAME_MAGICNO-32 "20971521.0000000000"
*MEAS_COND_AXIS_NAME_MAGICNO-33 "8388608.0000000000"
*MEAS_COND_AXIS_NAME_MAGICNO-34 "8388608.0000000000"
*MEAS_COND_AXIS_NAME_MAGICNO-35 "0.0000000000"
*MEAS_COND_AXIS_OFFSET-0 "-"
*MEAS_COND_AXIS_OFFSET-1 "0.9237000000"
*MEAS_COND_AXIS_OFFSET-2 "0.9069000000"
*MEAS_COND_AXIS_OFFSET-3 "0.0000000000"
*MEAS_COND_AXIS_OFFSET-4 "0.0000000000"
*MEAS_COND_AXIS_OFFSET-5 "-"
*MEAS_COND_AXIS_OFFSET-6 "-"
*MEAS_COND_AXIS_OFFSET-7 "0.9069000000"
*MEAS_COND_AXIS_OFFSET-8 "0.0168000000"
*MEAS_COND_AXIS_OFFSET-9 "-"
*MEAS_COND_AXIS_OFFSET-10 "-"
*MEAS_COND_AXIS_OFFSET-11 "-"
*MEAS_COND_AXIS_OFFSET-12 "-"
*MEAS_COND_AXIS_OFFSET-13 "-"
*MEAS_COND_AXIS_OFFSET-14 "-"
*MEAS_COND_AXIS_OFFSET-15 "-"
*MEAS_COND_AXIS_OFFSET-16 "-"
*MEAS_COND_AXIS_OFFSET-17 "-"
*MEAS_COND_AXIS_OFFSET-18 "-"
*MEAS_COND_AXIS_OFFSET-19 "-"
*MEAS_COND_AXIS_OFFSET-20 "-"
*MEAS_COND_AXIS_OFFSET-21 "-"
*MEAS_COND_AXIS_OFFSET-22 "-"
*MEAS_COND_AXIS_OFFSET-23 "-"
*MEAS_COND_AXIS_OFFSET-24 "-"
*MEAS_COND_AXIS_OFFSET-25 "-"
*MEAS_COND_AXIS_OFFSET-26 "-"
*MEAS_COND_AXIS_OFFSET-27 "-"
*MEAS_COND_AXIS_OFFSET-28 "-"
*MEAS_COND_AXIS_OFFSET-29 "-"
*MEAS_COND_AXIS_OFFSET-30 "-"
*MEAS_COND_AXIS_OFFSET-31 "-"
*MEAS_COND_AXIS_OFFSET-32 "-"
*MEAS_COND_AXIS_OFFSET-33 "0.0000000000"
*MEAS_COND_AXIS_OFFSET-34 "0.0000000000"
*MEAS_COND_AXIS_OFFSET-35 "-"
*MEAS_COND_AXIS_POSITION-0 "-0.0008000000"
*MEAS_COND_AXIS_POSITION-1 "-0.0008000000"
*MEAS_COND_AXIS_POSITION-2 "-0.0004000000"
*MEAS_COND_AXIS_POSITION-3 "0.0000000000"
*MEAS_COND_AXIS_POSITION-4 "0.0000000000"
*MEAS_COND_AXIS_POSITION-5 "-1.4825000000"
*MEAS_COND_AXIS_POSITION-6 "-0.0008000000"
*MEAS_COND_AXIS_POSITION-7 "-0.0004000000"
*MEAS_COND_AXIS_POSITION-8 "-0.0004000000"
*MEAS_COND_AXIS_POSITION-9 "-4.9359400000"
*MEAS_COND_AXIS_POSITION-10 "PB"
*MEAS_COND_AXIS_POSITION-11 "0.0000000000"
*MEAS_COND_AXIS_POSITION-12 "Soller_slit_open_s"
*MEAS_COND_AXIS_POSITION-13 "0.250mm"
*MEAS_COND_AXIS_POSITION-14 "0.2500000000"
*MEAS_COND_AXIS_POSITION-15 "-0.8884400000"
*MEAS_COND_AXIS_POSITION-16 "Ge(220)x2"
*MEAS_COND_AXIS_POSITION-17 "0.0000000000"
*MEAS_COND_AXIS_POSITION-18 "2.0mm"
*MEAS_COND_AXIS_POSITION-19 "None"
*MEAS_COND_AXIS_POSITION-20 "None"
*MEAS_COND_AXIS_POSITION-21 "0.250mm"
*MEAS_COND_AXIS_POSITION-22 "0.250mm"
*MEAS_COND_AXIS_POSITION-23 "No_unit"
*MEAS_COND_AXIS_POSITION-24 "Soller_slit_5.0deg"
*MEAS_COND_AXIS_POSITION-25 "None"
*MEAS_COND_AXIS_POSITION-26 "0.2500000000"
*MEAS_COND_AXIS_POSITION-27 "0.2500000000"
*MEAS_COND_AXIS_POSITION-28 "0.0887500000"
*MEAS_COND_AXIS_POSITION-29 "1/10000"
*MEAS_COND_AXIS_POSITION-30 "None"
*MEAS_COND_AXIS_POSITION-31 "None"
*MEAS_COND_AXIS_POSITION-32 "None"
*MEAS_COND_AXIS_POSITION-33 "0.0000000000"
*MEAS_COND_AXIS_POSITION-34 "0.0000000000"
*MEAS_COND_AXIS_POSITION-35 "34.0000000000"
*MEAS_COND_AXIS_UNIT-0 "deg"
*MEAS_COND_AXIS_UNIT-1 "deg"
*MEAS_COND_AXIS_UNIT-2 "deg"
*MEAS_COND_AXIS_UNIT-3 "deg"
*MEAS_COND_AXIS_UNIT-4 "deg"
*MEAS_COND_AXIS_UNIT-5 "mm"
*MEAS_COND_AXIS_UNIT-6 "deg"
*MEAS_COND_AXIS_UNIT-7 "deg"
*MEAS_COND_AXIS_UNIT-8 "deg"
*MEAS_COND_AXIS_UNIT-9 "mm"
*MEAS_COND_AXIS_UNIT-10 ""
*MEAS_COND_AXIS_UNIT-11 "pulse"
*MEAS_COND_AXIS_UNIT-12 ""
*MEAS_COND_AXIS_UNIT-13 ""
*MEAS_COND_AXIS_UNIT-14 "mm"
*MEAS_COND_AXIS_UNIT-15 "mm"
*MEAS_COND_AXIS_UNIT-16 ""
*MEAS_COND_AXIS_UNIT-17 "pulse"
*MEAS_COND_AXIS_UNIT-18 ""
*MEAS_COND_AXIS_UNIT-19 ""
*MEAS_COND_AXIS_UNIT-20 ""
*MEAS_COND_AXIS_UNIT-21 ""
*MEAS_COND_AXIS_UNIT-22 ""
*MEAS_COND_AXIS_UNIT-23 ""
*MEAS_COND_AXIS_UNIT-24 ""
*MEAS_COND_AXIS_UNIT-25 ""
*MEAS_COND_AXIS_UNIT-26 "mm"
*MEAS_COND_AXIS_UNIT-27 "mm"
*MEAS_COND_AXIS_UNIT-28 "mm"
*MEAS_COND_AXIS_UNIT-29 ""
*MEAS_COND_AXIS_UNIT-30 ""
*MEAS_COND_AXIS_UNIT-31 ""
*MEAS_COND_AXIS_UNIT-32 ""
*MEAS_COND_AXIS_UNIT-33 "deg"
*MEAS_COND_AXIS_UNIT-34 "deg"
*MEAS_COND_AXIS_UNIT-35 "div"
*MEAS_COND_COUNTER_CNTLOSS_CORR "0.0000000000"
*MEAS_COND_COUNTER_PHABASE "34.0000000000"
*MEAS_COND_COUNTER_PHAWINDOW "19.0000000000"
*MEAS_COND_COUNTER_PHA_UNIT "div"
*MEAS_COND_COUNTER_TAUDIFF "2.0000000000"
*MEAS_COND_COUNTER_TAUINT "0.1000000000"
*MEAS_COND_IRRADIATION_MODE "OFF"
*MEAS_COND_IRRADIATION_WIDTH ""
*MEAS_COND_OPT_ATTR "High resolution parallel beam Ge(220)x2/RS"
*MEAS_COND_OPT_NAME "@High resolution PB-Ge(220)x2"
*MEAS_COND_UNSYMMETRIC_MODE "OFF"
*MEAS_COND_XG_CURRENT "200.0000000000"
*MEAS_COND_XG_VOLTAGE "45.0000000000"
*MEAS_COND_XG_WAVE_TYPE "Ka1"
*MEAS_DATA_COUNT "3001.0000000000"
*MEAS_SCAN_AXIS_X "2-Theta/Omega"
*MEAS_SCAN_AXIS_X_INTERNAL "TwoThetaOmega"
*MEAS_SCAN_END_TIME "10/27/23 10:47:16"
*MEAS_SCAN_MODE "CONTINUOUS"
*MEAS_SCAN_MONITOR "0"
*MEAS_SCAN_RESOLUTION_X "0.0002"
*MEAS_SCAN_SPEED "0.500000"
*MEAS_SCAN_SPEED_UNIT "deg/min"
*MEAS_SCAN_SPEED_USER "0.500000"
*MEAS_SCAN_START "0.0000000000"
*MEAS_SCAN_START_TIME "10/27/23 10:34:47"
*MEAS_SCAN_STEP "0.0020000000"
*MEAS_SCAN_STOP "6.0000000000"
*MEAS_SCAN_UNIT_X "deg"
*MEAS_SCAN_UNIT_Y "counts"
*RAS_HEADER_END
*RAS_INT_START
0.0000 5656906.0000 1.0000
0.0020 5692903.0000 1.0000
0.0040 5780344.0000 1.0000
0.0060 5694558.5000 1.0000
0.0080 5686145.0000 1.0000
0.0100 5781034.0000 1.0000
0.0120 5621047.0000 1.0000
0.0140 5498299.0000 1.0000
0.0160 5580912.5000 1.0000
0.0180 5550294.5000 1.0000
0.0200 5515952.5000 1.0000
0.0220 5600359.5000 1.0000
0.0240 5431270.0000 1.0000
0.0260 5396652.0000 1.0000
0.0280 5243837.5000 1.0000
0.0300 5158051.5000 1.0000
0.0320 5076817.0000 1.0000
0.0340 4959999.0000 1.0000
0.0360 4459903.0000 1.0000
0.0380 4299089.0000 1.0000
0.0400 4024353.0000 1.0000
0.0420 3685898.5000 1.0000
0.0440 3405370.5000 1.0000
0.0460 3082363.0000 1.0000
0.0480 2651088.7500 1.0000
0.0500 2412625.7500 1.0000
0.0520 2101479.2500 1.0000
0.0540 1820951.1250 1.0000
0.0560 1621519.5000 1.0000
0.0580 1331750.6250 1.0000
0.0600 1081840.5000 1.0000
0.0620 933894.5000 1.0000
0.0640 735342.8750 1.0000
0.0660 579745.1250 1.0000
0.0680 463002.2188 1.0000
0.0700 372855.0313 1.0000
0.0720 297067.0625 1.0000
0.0740 237701.3281 1.0000
0.0760 203009.8594 1.0000
0.0780 170567.6094 1.0000
0.0800 153944.3125 1.0000
0.0820 136486.8594 1.0000
0.0840 128838.0469 1.0000
0.0860 115335.3359 1.0000
0.0880 110308.1328 1.0000
0.0900 103821.1719 1.0000
0.0920 99702.5781 1.0000
0.0940 96991.6172 1.0000
0.0960 95665.9219 1.0000
0.0980 97579.9844 1.0000
0.1000 97594.8750 1.0000
0.1020 95494.6250 1.0000
0.1040 98019.3984 1.0000
0.1060 97304.4141 1.0000
0.1080 95390.3516 1.0000
0.1100 99263.1641 1.0000
0.1120 101169.7813 1.0000
0.1140 106219.3359 1.0000
0.1160 103225.3516 1.0000
0.1180 105176.6563 1.0000
0.1200 105102.1797 1.0000
0.1220 109116.5000 1.0000
0.1240 108170.6406 1.0000
0.1260 111618.9297 1.0000
0.1280 112676.5078 1.0000
0.1300 112743.5313 1.0000
0.1320 113920.2734 1.0000
0.1340 119051.7500 1.0000
0.1360 117793.0859 1.0000
0.1380 119699.7031 1.0000
0.1400 123773.6016 1.0000
0.1420 122365.9844 1.0000
0.1440 124443.8984 1.0000
0.1460 127571.9375 1.0000
0.1480 131675.6250 1.0000
0.1500 132837.4688 1.0000
0.1520 131988.4375 1.0000
0.1540 133507.7656 1.0000
0.1560 136665.5938 1.0000
0.1580 133634.3750 1.0000
0.1600 138326.4375 1.0000
0.1620 135049.4531 1.0000
0.1640 142027.9531 1.0000
0.1660 143629.2188 1.0000
0.1680 150615.1719 1.0000
0.1700 146183.7813 1.0000
0.1720 148209.5625 1.0000
0.1740 150250.2344 1.0000
0.1760 149542.7031 1.0000
0.1780 150436.4219 1.0000
0.1800 155605.1406 1.0000
0.1820 151724.8906 1.0000
0.1840 161749.5156 1.0000
0.1860 160937.7031 1.0000
0.1880 165108.4219 1.0000
0.1900 165197.8125 1.0000
0.1920 168951.4531 1.0000
0.1940 172146.5156 1.0000
0.1960 169793.0469 1.0000
0.1980 171230.4531 1.0000
0.2000 172042.2500 1.0000
0.2020 173390.2969 1.0000
0.2040 174656.4063 1.0000
0.2060 171632.6250 1.0000
0.2080 176026.7813 1.0000
0.2100 178864.3594 1.0000
0.2120 182171.1563 1.0000
0.2140 185731.1563 1.0000
0.2160 179497.4219 1.0000
0.2180 185798.1875 1.0000
0.2200 190482.7969 1.0000
0.2220 185083.2031 1.0000
0.2240 187101.5469 1.0000
0.2260 190534.9375 1.0000
0.2280 190117.8594 1.0000
0.2300 199732.8594 1.0000
0.2320 196850.5938 1.0000
0.2340 197692.1875 1.0000
0.2360 193484.2344 1.0000
0.2380 205996.3906 1.0000
0.2400 203628.0156 1.0000
0.2420 205125.0156 1.0000
0.2440 214874.0781 1.0000
0.2460 211530.0469 1.0000
0.2480 212967.4531 1.0000
0.2500 212312.0625 1.0000
0.2520 209668.1250 1.0000
0.2540 211872.6406 1.0000
0.2560 214784.7031 1.0000
0.2580 211574.7344 1.0000
0.2600 218821.3594 1.0000
0.2620 222589.9063 1.0000
0.2640 211798.1563 1.0000
0.2660 227326.6563 1.0000
0.2680 219379.9531 1.0000
0.2700 225762.6406 1.0000
0.2720 234245.5781 1.0000
0.2740 230268.5000 1.0000
0.2760 227915.0313 1.0000
0.2780 228801.3125 1.0000
0.2800 227699.0313 1.0000
0.2820 236733.1250 1.0000
0.2840 235109.5156 1.0000
0.2860 234022.1406 1.0000
0.2880 236844.8438 1.0000
0.2900 236293.7031 1.0000
0.2920 237388.5313 1.0000
0.2940 244329.7969 1.0000
0.2960 243942.5156 1.0000
0.2980 245394.8125 1.0000
0.3000 251837.0938 1.0000
0.3020 252179.6719 1.0000
0.3040 256208.9063 1.0000
0.3060 250049.6406 1.0000
0.3080 257251.5781 1.0000
0.3100 253274.5000 1.0000
0.3120 260752.0156 1.0000
0.3140 260096.6094 1.0000
0.3160 260290.2500 1.0000
0.3180 261355.2656 1.0000
0.3200 266710.1875 1.0000
0.3220 268304.0000 1.0000
0.3240 265027.0000 1.0000
0.3260 266509.0938 1.0000
0.3280 268251.8438 1.0000
0.3300 267700.7188 1.0000
0.3320 273316.3125 1.0000
0.3340 274790.9375 1.0000
0.3360 263418.2813 1.0000
0.3380 274232.3750 1.0000
0.3400 282789.8125 1.0000
0.3420 283996.3125 1.0000
0.3440 275729.3750 1.0000
0.3460 284525.1250 1.0000
0.3480 283921.8438 1.0000
0.3500 291317.4375 1.0000
0.3520 286856.2500 1.0000
0.3540 286617.9375 1.0000
0.3560 290647.1563 1.0000
0.3580 293030.4063 1.0000
0.3600 292769.7500 1.0000
0.3620 297067.0938 1.0000
0.3640 296180.7813 1.0000
0.3660 296538.2813 1.0000
0.3680 285255.0000 1.0000
0.3700 294564.6250 1.0000
0.3720 300157.8750 1.0000
0.3740 306399.0625 1.0000
0.3760 298809.8438 1.0000
0.3780 305207.4375 1.0000
0.3800 302556.0313 1.0000
0.3820 310033.5625 1.0000
0.3840 310204.8438 1.0000
0.3860 309281.3438 1.0000
0.3880 309005.7813 1.0000
0.3900 315522.5000 1.0000
0.3920 316721.5938 1.0000
0.3940 310741.0938 1.0000
0.3960 313951.0625 1.0000
0.3980 316513.0625 1.0000
0.4000 324132.0938 1.0000
0.4020 314479.8438 1.0000
0.4040 320512.5000 1.0000
0.4060 317399.3438 1.0000
0.4080 332793.7813 1.0000
0.4100 324705.5625 1.0000
0.4120 322486.1250 1.0000
0.4140 337366.6875 1.0000
0.4160 327580.3750 1.0000
0.4180 334819.5625 1.0000
0.4200 331877.6875 1.0000
0.4220 330812.6875 1.0000
0.4240 333717.2813 1.0000
0.4260 343034.3750 1.0000
0.4280 344576.0625 1.0000
0.4300 334104.5625 1.0000
0.4320 343242.9063 1.0000
0.4340 339668.0000 1.0000
0.4360 344941.0000 1.0000
0.4380 348240.3438 1.0000
0.4400 341351.1875 1.0000
0.4420 341425.6563 1.0000
0.4440 350690.6250 1.0000
0.4460 353342.0313 1.0000
0.4480 346907.1875 1.0000
0.4500 353669.7188 1.0000
0.4520 347249.7813 1.0000
0.4540 349245.7813 1.0000
0.4560 357810.6563 1.0000
0.4580 354287.8750 1.0000
0.4600 354727.2813 1.0000
0.4620 362726.1563 1.0000
0.4640 359620.4375 1.0000
0.4660 359940.6875 1.0000
0.4680 363269.8438 1.0000
0.4700 364297.6250 1.0000
0.4720 360700.3750 1.0000
0.4740 363604.9688 1.0000
0.4760 369928.0938 1.0000
0.4780 367142.6563 1.0000
0.4800 368185.3125 1.0000
0.4820 371484.6563 1.0000
0.4840 376586.3438 1.0000
0.4860 370129.1875 1.0000
0.4880 373056.1250 1.0000
0.4900 382626.4375 1.0000
0.4920 374992.5313 1.0000
0.4940 373212.5313 1.0000
0.4960 377934.3750 1.0000
0.4980 379468.6250 1.0000
0.5000 376869.3438 1.0000
0.5020 379386.6875 1.0000
0.5040 384652.2188 1.0000
0.5060 385113.9688 1.0000
0.5080 384302.1875 1.0000
0.5100 381859.3438 1.0000
0.5120 380488.9688 1.0000
0.5140 378492.9688 1.0000
0.5160 387884.5313 1.0000
0.5180 390550.8125 1.0000
0.5200 392837.2500 1.0000
0.5220 387906.8750 1.0000
0.5240 387087.6250 1.0000
0.5260 390707.2188 1.0000
0.5280 391705.2188 1.0000
0.5300 396300.4688 1.0000
