*RAS_DATA_START
*RAS_HEADER_START
*DISP_FMT_X "%.4f"
*DISP_FMT_Y "%.0f"
*DISP_FULLSCALE "29666484.4499999990"
*DISP_LINE_COLOR "255.0000000000"
*DISP_LINE_STYLE "0.0000000000"
*DISP_LINE_WIDTH "0.2500000000"
*DISP_NOTE "Collected Data-3"
*DISP_OFFSET_Y "0.0000000000"
*DISP_PEAKSEARCH_UNIT_Y "cps"
*DISP_RANGE_BOTTOM "0.0100000000"
*DISP_RANGE_LEFT "-0.0006000000"
*DISP_RANGE_LOGCUTOFF "0.0100000000"
*DISP_RANGE_RIGHT "6.0006000000"
*DISP_RANGE_TOP "29666484.4499999990"
*DISP_SCALE_MODE_Y "2.0000000000"
*DISP_TAB_NAME "2-Theta/Omega"
*DISP_TITLE_Y "Intensity"
*DISP_UNIT_Y "cps"
*DISP_WINDOW_NAME "MSG_MACROENGINE"
*FILE_COMMENT " "
*FILE_MD5 ""
*FILE_MEMO " "
*FILE_OPERATOR "Administrator"
*FILE_PART_ID "MEAS_KHP2_00055"
*FILE_SAMPLE "CWO I1"
*FILE_TYPE "RAS_RAW"
*FILE_USERGROUP "System Manager"
*FILE_VERSION "1.0000000000"
*HW_ATTACHMENT_ID "ATT0025"
*HW_ATTACHMENT_NAME "標準|Standard"
*HW_COUNTER_ID-0 "CUT0025"
*HW_COUNTER_ID-1 "CUT0020"
*HW_COUNTER_ID-2 "CUT0020"
*HW_COUNTER_ID-3 "CSL0021"
*HW_COUNTER_ID-4 "CMC0021"
*HW_COUNTER_NAME-0 "D/teX Ultra|D/teX Ultra"
*HW_COUNTER_NAME-1 "None|None"
*HW_COUNTER_NAME-2 "None|None"
*HW_COUNTER_NAME-3 "BBM|BBM"
*HW_COUNTER_NAME-4 "検出器モノクロメータ|Detector monochromator"
*HW_COUNTER_SELECT_NAME "D/teX Ultra|D/teX Ultra"
*HW_GONIOMETER_ID "GON0023"
*HW_GONIOMETER_NAME "SmartLab|SmartLab"
*HW_GONIOMETER_RADIUS-0 "90.0"
*HW_GONIOMETER_RADIUS-1 "114.0"
*HW_GONIOMETER_RADIUS-2 "190.0"
*HW_GONIOMETER_RADIUS-3 "300.0"
*HW_GONIOMETER_RADIUS-4 "187.0"
*HW_GONIOMETER_RADIUS-5 "300.0"
*HW_GONIOMETER_RADIUS-6 "113.0"
*HW_GONIOMETER_RADIUS-7 "331.0"
*HW_I_OPT_ID-0 "CBO0021"
*HW_I_OPT_ID-1 "ICR0021"
*HW_I_OPT_ID-2 "ISL0021"
*HW_I_OPT_ID-3 "ISO0021"
*HW_I_OPT_ID-4 "IAD0021"
*HW_I_OPT_ID-5 "IPR0001"
*HW_I_OPT_NAME-0 "CBOユニット|CBO unit"
*HW_I_OPT_NAME-1 "標準入射光学ユニット|Standard incident optical unit"
*HW_I_OPT_NAME-2 "標準入射スリットボックス|Standard incident slit box"
*HW_I_OPT_NAME-3 "入射平行スリット|Incident parallel slit"
*HW_I_OPT_NAME-4 "長手制限スリット|Length limiting slit"
*HW_I_OPT_NAME-5 "None|None"
*HW_R_ATTENUATER_AUTOMODE "1"
*HW_R_OPT_ID-0 "RSS0021"
*HW_R_OPT_ID-1 "RCR0023"
*HW_R_OPT_ID-2 "RSO0021"
*HW_R_OPT_ID-3 "RRS0021"
*HW_R_OPT_ID-4 "ATN0021"
*HW_R_OPT_ID-5 "RFL0021"
*HW_R_OPT_ID-6 "RAD0021"
*HW_R_OPT_NAME-0 "標準受光スリットボックス1|Standard receiving slit box # 1"
*HW_R_OPT_NAME-1 "標準受光光学ユニット1|Standard receiving unit # 1"
*HW_R_OPT_NAME-2 "標準受光光学ユニット2|Standard receiving optical unit # 2"
*HW_R_OPT_NAME-3 "標準受光スリットボックス2|Standard receiving slit box # 2"
*HW_R_OPT_NAME-4 "標準アッテネータ|Standard Attenuator"
*HW_R_OPT_NAME-5 "Cu Kβ|Cu K-beta"
*HW_R_OPT_NAME-6 "調整用受光スリット|Alignment receiving slit"
*HW_SAMPLE_HOLDER_ID "SMP0021"
*HW_SAMPLE_HOLDER_NAME "χφZクレードル|Chi phi Z cradle"
*HW_XG_CURRENT_MAX "200"
*HW_XG_CURRENT_MIN "10"
*HW_XG_CURRENT_RESOLUTION "1"
*HW_XG_CURRENT_UNIT "mA"
*HW_XG_FOCUS "0.4mm x 8mm"
*HW_XG_FOCUS_TYPE "Normal"
*HW_XG_ID "1700"
*HW_XG_NAME "9kW 開放管(45kV 200mA ID:1700)|9kW Rotating anode(45kV 200mA ID:1700)"
*HW_XG_TARGET_ATOMIC_NUMBER "29.0000000000"
*HW_XG_TARGET_NAME "Cu"
*HW_XG_TYPE "Rota"
*HW_XG_VOLTAGE_MAX "45"
*HW_XG_VOLTAGE_MIN "20"
*HW_XG_VOLTAGE_RESOLUTION "1"
*HW_XG_VOLTAGE_UNIT "kV"
*HW_XG_WATT_MAX "9.00"
*HW_XG_WATT_UNIT "kW"
*HW_XG_WAVE_LENGTH_ALPHA1 "1.540593"
*HW_XG_WAVE_LENGTH_ALPHA2 "1.544414"
*HW_XG_WAVE_LENGTH_BETA "1.392250"
*MEAS_COND_AXIS_NAME-0 "Theta/2-Theta"
*MEAS_COND_AXIS_NAME-1 "2-Theta"
*MEAS_COND_AXIS_NAME-2 "Omega"
*MEAS_COND_AXIS_NAME-3 "Chi"
*MEAS_COND_AXIS_NAME-4 "Phi"
*MEAS_COND_AXIS_NAME-5 "Z"
*MEAS_COND_AXIS_NAME-6 "2-Theta/Omega"
*MEAS_COND_AXIS_NAME-7 "Theta_s"
*MEAS_COND_AXIS_NAME-8 "Theta_d"
*MEAS_COND_AXIS_NAME-9 "Ts"
*MEAS_COND_AXIS_NAME-10 "CBO selection slit"
*MEAS_COND_AXIS_NAME-11 "M"
*MEAS_COND_AXIS_NAME-12 "Incident parallel slit"
*MEAS_COND_AXIS_NAME-13 "Incident slit"
*MEAS_COND_AXIS_NAME-14 ""
*MEAS_COND_AXIS_NAME-15 "Zs"
*MEAS_COND_AXIS_NAME-16 "Incident optical device"
*MEAS_COND_AXIS_NAME-17 "Omega_m"
*MEAS_COND_AXIS_NAME-18 "Length limiting slit"
*MEAS_COND_AXIS_NAME-19 "Center slit"
*MEAS_COND_AXIS_NAME-20 "Filter"
*MEAS_COND_AXIS_NAME-21 "Receiving slit # 1"
*MEAS_COND_AXIS_NAME-22 "Receiving slit # 2"
*MEAS_COND_AXIS_NAME-23 "Receiving optical device"
*MEAS_COND_AXIS_NAME-24 "Receiving parallel slit"
*MEAS_COND_AXIS_NAME-25 "Alignment receiving slit"
*MEAS_COND_AXIS_NAME-26 ""
*MEAS_COND_AXIS_NAME-27 ""
*MEAS_COND_AXIS_NAME-28 "Zd"
*MEAS_COND_AXIS_NAME-29 "Attenuator"
*MEAS_COND_AXIS_NAME-30 "Diffracted beam monochromator"
*MEAS_COND_AXIS_NAME-31 "Monochromator slit"
*MEAS_COND_AXIS_NAME-32 "Primary beam"
*MEAS_COND_AXIS_NAME-33 ""
*MEAS_COND_AXIS_NAME-34 ""
*MEAS_COND_AXIS_NAME-35 "PHA"
*MEAS_COND_AXIS_NAME_INTERNAL-0 "TwoThetaTheta"
*MEAS_COND_AXIS_NAME_INTERNAL-1 "TwoTheta"
*MEAS_COND_AXIS_NAME_INTERNAL-2 "Omega"
*MEAS_COND_AXIS_NAME_INTERNAL-3 "Chi"
*MEAS_COND_AXIS_NAME_INTERNAL-4 "Phi"
*MEAS_COND_AXIS_NAME_INTERNAL-5 "Z"
*MEAS_COND_AXIS_NAME_INTERNAL-6 "TwoThetaOmega"
*MEAS_COND_AXIS_NAME_INTERNAL-7 "ThetaS"
*MEAS_COND_AXIS_NAME_INTERNAL-8 "ThetaD"
*MEAS_COND_AXIS_NAME_INTERNAL-9 "Ts"
*MEAS_COND_AXIS_NAME_INTERNAL-10 "CBO"
*MEAS_COND_AXIS_NAME_INTERNAL-11 "CBO-M"
*MEAS_COND_AXIS_NAME_INTERNAL-12 "IncidentSollerSlit"
*MEAS_COND_AXIS_NAME_INTERNAL-13 "IncidentSlitBox"
*MEAS_COND_AXIS_NAME_INTERNAL-14 "IncidentSlitBox-_Axis"
*MEAS_COND_AXIS_NAME_INTERNAL-15 "Zs"
*MEAS_COND_AXIS_NAME_INTERNAL-16 "IncidentMonochromator"
*MEAS_COND_AXIS_NAME_INTERNAL-17 "IncidentMonochromator-OmegaM"
*MEAS_COND_AXIS_NAME_INTERNAL-18 "IncidentAxdSlit"
*MEAS_COND_AXIS_NAME_INTERNAL-19 "CenterSlit"
*MEAS_COND_AXIS_NAME_INTERNAL-20 "Filter"
*MEAS_COND_AXIS_NAME_INTERNAL-21 "ReceivingSlitBox1"
*MEAS_COND_AXIS_NAME_INTERNAL-22 "ReceivingSlitBox2"
*MEAS_COND_AXIS_NAME_INTERNAL-23 "ReceivingOptics"
*MEAS_COND_AXIS_NAME_INTERNAL-24 "ReceivingSollerSlit"
*MEAS_COND_AXIS_NAME_INTERNAL-25 "ReceivingAxdSlit"
*MEAS_COND_AXIS_NAME_INTERNAL-26 "ReceivingSlitBox1-_Axis"
*MEAS_COND_AXIS_NAME_INTERNAL-27 "ReceivingSlitBox2-_Axis"
*MEAS_COND_AXIS_NAME_INTERNAL-28 "ReceivingSlitBox2-Zd"
*MEAS_COND_AXIS_NAME_INTERNAL-29 "Attenuator"
*MEAS_COND_AXIS_NAME_INTERNAL-30 "CounterMonochromator"
*MEAS_COND_AXIS_NAME_INTERNAL-31 "CounterSlit"
*MEAS_COND_AXIS_NAME_INTERNAL-32 "IncidentPrimary"
*MEAS_COND_AXIS_NAME_INTERNAL-33 "AlphaR"
*MEAS_COND_AXIS_NAME_INTERNAL-34 "BetaR"
*MEAS_COND_AXIS_NAME_INTERNAL-35 "PHA"
*MEAS_COND_AXIS_NAME_MAGICNO-0 "83951616.0000000000"
*MEAS_COND_AXIS_NAME_MAGICNO-1 "268632064.0000000000"
*MEAS_COND_AXIS_NAME_MAGICNO-2 "268500992.0000000000"
*MEAS_COND_AXIS_NAME_MAGICNO-3 "268500992.0000000000"
*MEAS_COND_AXIS_NAME_MAGICNO-4 "268500992.0000000000"
*MEAS_COND_AXIS_NAME_MAGICNO-5 "285278208.0000000000"
*MEAS_COND_AXIS_NAME_MAGICNO-6 "83951616.0000000000"
*MEAS_COND_AXIS_NAME_MAGICNO-7 "131072.0000000000"
*MEAS_COND_AXIS_NAME_MAGICNO-8 "131072.0000000000"
*MEAS_COND_AXIS_NAME_MAGICNO-9 "318898176.0000000000"
*MEAS_COND_AXIS_NAME_MAGICNO-10 "20971521.0000000000"
*MEAS_COND_AXIS_NAME_MAGICNO-11 "285343744.0000000000"
*MEAS_COND_AXIS_NAME_MAGICNO-12 "20971521.0000000000"
*MEAS_COND_AXIS_NAME_MAGICNO-13 "22020097.0000000000"
*MEAS_COND_AXIS_NAME_MAGICNO-14 "25165824.0000000000"
*MEAS_COND_AXIS_NAME_MAGICNO-15 "318898176.0000000000"
*MEAS_COND_AXIS_NAME_MAGICNO-16 "20971521.0000000000"
*MEAS_COND_AXIS_NAME_MAGICNO-17 "285343744.0000000000"
*MEAS_COND_AXIS_NAME_MAGICNO-18 "20971521.0000000000"
*MEAS_COND_AXIS_NAME_MAGICNO-19 "20971521.0000000000"
*MEAS_COND_AXIS_NAME_MAGICNO-20 "20971521.0000000000"
*MEAS_COND_AXIS_NAME_MAGICNO-21 "23068673.0000000000"
*MEAS_COND_AXIS_NAME_MAGICNO-22 "23068673.0000000000"
*MEAS_COND_AXIS_NAME_MAGICNO-23 "20971521.0000000000"
*MEAS_COND_AXIS_NAME_MAGICNO-24 "20971521.0000000000"
*MEAS_COND_AXIS_NAME_MAGICNO-25 "20971521.0000000000"
*MEAS_COND_AXIS_NAME_MAGICNO-26 "25165824.0000000000"
*MEAS_COND_AXIS_NAME_MAGICNO-27 "25165824.0000000000"
*MEAS_COND_AXIS_NAME_MAGICNO-28 "285343744.0000000000"
*MEAS_COND_AXIS_NAME_MAGICNO-29 "17301505.0000000000"
*MEAS_COND_AXIS_NAME_MAGICNO-30 "20971521.0000000000"
*MEAS_COND_AXIS_NAME_MAGICNO-31 "20971521.0000000000"
*MEAS_COND_AXIS_NAME_MAGICNO-32 "20971521.0000000000"
*MEAS_COND_AXIS_NAME_MAGICNO-33 "8388608.0000000000"
*MEAS_COND_AXIS_NAME_MAGICNO-34 "8388608.0000000000"
*MEAS_COND_AXIS_NAME_MAGICNO-35 "0.0000000000"
*MEAS_COND_AXIS_OFFSET-0 "-"
*MEAS_COND_AXIS_OFFSET-1 "0.9237000000"
*MEAS_COND_AXIS_OFFSET-2 "0.8516000000"
*MEAS_COND_AXIS_OFFSET-3 "0.0000000000"
*MEAS_COND_AXIS_OFFSET-4 "0.0000000000"
*MEAS_COND_AXIS_OFFSET-5 "-"
*MEAS_COND_AXIS_OFFSET-6 "-"
*MEAS_COND_AXIS_OFFSET-7 "0.8516000000"
*MEAS_COND_AXIS_OFFSET-8 "0.0721000000"
*MEAS_COND_AXIS_OFFSET-9 "-"
*MEAS_COND_AXIS_OFFSET-10 "-"
*MEAS_COND_AXIS_OFFSET-11 "-"
*MEAS_COND_AXIS_OFFSET-12 "-"
*MEAS_COND_AXIS_OFFSET-13 "-"
*MEAS_COND_AXIS_OFFSET-14 "-"
*MEAS_COND_AXIS_OFFSET-15 "-"
*MEAS_COND_AXIS_OFFSET-16 "-"
*MEAS_COND_AXIS_OFFSET-17 "-"
*MEAS_COND_AXIS_OFFSET-18 "-"
*MEAS_COND_AXIS_OFFSET-19 "-"
*MEAS_COND_AXIS_OFFSET-20 "-"
*MEAS_COND_AXIS_OFFSET-21 "-"
*MEAS_COND_AXIS_OFFSET-22 "-"
*MEAS_COND_AXIS_OFFSET-23 "-"
*MEAS_COND_AXIS_OFFSET-24 "-"
*MEAS_COND_AXIS_OFFSET-25 "-"
*MEAS_COND_AXIS_OFFSET-26 "-"
*MEAS_COND_AXIS_OFFSET-27 "-"
*MEAS_COND_AXIS_OFFSET-28 "-"
*MEAS_COND_AXIS_OFFSET-29 "-"
*MEAS_COND_AXIS_OFFSET-30 "-"
*MEAS_COND_AXIS_OFFSET-31 "-"
*MEAS_COND_AXIS_OFFSET-32 "-"
*MEAS_COND_AXIS_OFFSET-33 "0.0000000000"
*MEAS_COND_AXIS_OFFSET-34 "0.0000000000"
*MEAS_COND_AXIS_OFFSET-35 "-"
*MEAS_COND_AXIS_POSITION-0 "-0.0008000000"
*MEAS_COND_AXIS_POSITION-1 "-0.0009000000"
*MEAS_COND_AXIS_POSITION-2 "-0.0004000000"
*MEAS_COND_AXIS_POSITION-3 "0.0000000000"
*MEAS_COND_AXIS_POSITION-4 "0.0000000000"
*MEAS_COND_AXIS_POSITION-5 "-1.4599000000"
*MEAS_COND_AXIS_POSITION-6 "-0.0008000000"
*MEAS_COND_AXIS_POSITION-7 "-0.0004000000"
*MEAS_COND_AXIS_POSITION-8 "-0.0005000000"
*MEAS_COND_AXIS_POSITION-9 "-4.9359400000"
*MEAS_COND_AXIS_POSITION-10 "PB"
*MEAS_COND_AXIS_POSITION-11 "0.0000000000"
*MEAS_COND_AXIS_POSITION-12 "Soller_slit_open_s"
*MEAS_COND_AXIS_POSITION-13 "0.250mm"
*MEAS_COND_AXIS_POSITION-14 "0.2500000000"
*MEAS_COND_AXIS_POSITION-15 "-0.8884400000"
*MEAS_COND_AXIS_POSITION-16 "Ge(220)x2"
*MEAS_COND_AXIS_POSITION-17 "0.0000000000"
*MEAS_COND_AXIS_POSITION-18 "2.0mm"
*MEAS_COND_AXIS_POSITION-19 "None"
*MEAS_COND_AXIS_POSITION-20 "None"
*MEAS_COND_AXIS_POSITION-21 "0.250mm"
*MEAS_COND_AXIS_POSITION-22 "0.250mm"
*MEAS_COND_AXIS_POSITION-23 "No_unit"
*MEAS_COND_AXIS_POSITION-24 "Soller_slit_5.0deg"
*MEAS_COND_AXIS_POSITION-25 "None"
*MEAS_COND_AXIS_POSITION-26 "0.2500000000"
*MEAS_COND_AXIS_POSITION-27 "0.2500000000"
*MEAS_COND_AXIS_POSITION-28 "0.0887500000"
*MEAS_COND_AXIS_POSITION-29 "1/10000"
*MEAS_COND_AXIS_POSITION-30 "None"
*MEAS_COND_AXIS_POSITION-31 "None"
*MEAS_COND_AXIS_POSITION-32 "None"
*MEAS_COND_AXIS_POSITION-33 "0.0000000000"
*MEAS_COND_AXIS_POSITION-34 "0.0000000000"
*MEAS_COND_AXIS_POSITION-35 "34.0000000000"
*MEAS_COND_AXIS_UNIT-0 "deg"
*MEAS_COND_AXIS_UNIT-1 "deg"
*MEAS_COND_AXIS_UNIT-2 "deg"
*MEAS_COND_AXIS_UNIT-3 "deg"
*MEAS_COND_AXIS_UNIT-4 "deg"
*MEAS_COND_AXIS_UNIT-5 "mm"
*MEAS_COND_AXIS_UNIT-6 "deg"
*MEAS_COND_AXIS_UNIT-7 "deg"
*MEAS_COND_AXIS_UNIT-8 "deg"
*MEAS_COND_AXIS_UNIT-9 "mm"
*MEAS_COND_AXIS_UNIT-10 ""
*MEAS_COND_AXIS_UNIT-11 "pulse"
*MEAS_COND_AXIS_UNIT-12 ""
*MEAS_COND_AXIS_UNIT-13 ""
*MEAS_COND_AXIS_UNIT-14 "mm"
*MEAS_COND_AXIS_UNIT-15 "mm"
*MEAS_COND_AXIS_UNIT-16 ""
*MEAS_COND_AXIS_UNIT-17 "pulse"
*MEAS_COND_AXIS_UNIT-18 ""
*MEAS_COND_AXIS_UNIT-19 ""
*MEAS_COND_AXIS_UNIT-20 ""
*MEAS_COND_AXIS_UNIT-21 ""
*MEAS_COND_AXIS_UNIT-22 ""
*MEAS_COND_AXIS_UNIT-23 ""
*MEAS_COND_AXIS_UNIT-24 ""
*MEAS_COND_AXIS_UNIT-25 ""
*MEAS_COND_AXIS_UNIT-26 "mm"
*MEAS_COND_AXIS_UNIT-27 "mm"
*MEAS_COND_AXIS_UNIT-28 "mm"
*MEAS_COND_AXIS_UNIT-29 ""
*MEAS_COND_AXIS_UNIT-30 ""
*MEAS_COND_AXIS_UNIT-31 ""
*MEAS_COND_AXIS_UNIT-32 ""
*MEAS_COND_AXIS_UNIT-33 "deg"
*MEAS_COND_AXIS_UNIT-34 "deg"
*MEAS_COND_AXIS_UNIT-35 "div"
*MEAS_COND_COUNTER_CNTLOSS_CORR "0.0000000000"
*MEAS_COND_COUNTER_PHABASE "34.0000000000"
*MEAS_COND_COUNTER_PHAWINDOW "19.0000000000"
*MEAS_COND_COUNTER_PHA_UNIT "div"
*MEAS_COND_COUNTER_TAUDIFF "2.0000000000"
*MEAS_COND_COUNTER_TAUINT "0.1000000000"
*MEAS_COND_IRRADIATION_MODE "OFF"
*MEAS_COND_IRRADIATION_WIDTH ""
*MEAS_COND_OPT_ATTR "High resolution parallel beam Ge(220)x2/RS"
*MEAS_COND_OPT_NAME "@High resolution PB-Ge(220)x2"
*MEAS_COND_UNSYMMETRIC_MODE "OFF"
*MEAS_COND_XG_CURRENT "200.0000000000"
*MEAS_COND_XG_VOLTAGE "45.0000000000"
*MEAS_COND_XG_WAVE_TYPE "Ka1"
*MEAS_DATA_COUNT "3001.0000000000"
*MEAS_SCAN_AXIS_X "2-Theta/Omega"
*MEAS_SCAN_AXIS_X_INTERNAL "TwoThetaOmega"
*MEAS_SCAN_END_TIME "10/27/23 14:00:46"
*MEAS_SCAN_MODE "CONTINUOUS"
*MEAS_SCAN_MONITOR "0"
*MEAS_SCAN_RESOLUTION_X "0.0002"
*MEAS_SCAN_SPEED "0.500000"
*MEAS_SCAN_SPEED_UNIT "deg/min"
*MEAS_SCAN_SPEED_USER "0.500000"
*MEAS_SCAN_START "0.0000000000"
*MEAS_SCAN_START_TIME "10/27/23 13:48:18"
*MEAS_SCAN_STEP "0.0020000000"
*MEAS_SCAN_STOP "6.0000000000"
*MEAS_SCAN_UNIT_X "deg"
*MEAS_SCAN_UNIT_Y "counts"
*RAS_HEADER_END
*RAS_INT_START
0.0000 5432373.5000 1.0000
0.0020 5569327.5000 1.0000
0.0040 5663664.5000 1.0000
0.0060 5583809.0000 1.0000
0.0080 5606979.5000 1.0000
0.0100 5620219.5000 1.0000
0.0120 5518986.5000 1.0000
0.0140 5458716.0000 1.0000
0.0160 5459957.0000 1.0000
0.0180 5486575.5000 1.0000
0.0200 5425477.5000 1.0000
0.0220 5264525.0000 1.0000
0.0240 5299419.0000 1.0000
0.0260 5153500.0000 1.0000
0.0280 5187704.0000 1.0000
0.0300 5135708.5000 1.0000
0.0320 4870627.0000 1.0000
0.0340 4688987.0000 1.0000
0.0360 4435077.5000 1.0000
0.0380 4154687.0000 1.0000
0.0400 3911948.7500 1.0000
0.0420 3653487.5000 1.0000
0.0440 3268416.2500 1.0000
0.0460 2990508.5000 1.0000
0.0480 2618953.5000 1.0000
0.0500 2314840.7500 1.0000
0.0520 1991971.2500 1.0000
0.0540 1767024.6250 1.0000
0.0560 1486634.2500 1.0000
0.0580 1222104.6250 1.0000
0.0600 1006456.1250 1.0000
0.0620 834978.4375 1.0000
0.0640 671903.1875 1.0000
0.0660 518994.1563 1.0000
0.0680 401052.0938 1.0000
0.0700 322657.4375 1.0000
0.0720 251159.3438 1.0000
0.0740 205489.9531 1.0000
0.0760 167811.9531 1.0000
0.0780 143748.3750 1.0000
0.0800 121382.8906 1.0000
0.0820 111417.8359 1.0000
0.0840 95293.5391 1.0000
0.0860 87145.7344 1.0000
0.0880 77113.6563 1.0000
0.0900 76480.6016 1.0000
0.0920 72764.1953 1.0000
0.0940 67751.8750 1.0000
0.0960 67453.9688 1.0000
0.0980 66910.2891 1.0000
0.1000 66738.9922 1.0000
0.1020 67990.2031 1.0000
0.1040 66448.5234 1.0000
0.1060 65569.6953 1.0000
0.1080 68399.8281 1.0000
0.1100 67722.0859 1.0000
0.1120 66969.8672 1.0000
0.1140 71810.8828 1.0000
0.1160 68586.0234 1.0000
0.1180 70336.2422 1.0000
0.1200 68824.3516 1.0000
0.1220 78215.9219 1.0000
0.1240 75020.8516 1.0000
0.1260 75542.1875 1.0000
0.1280 82967.5625 1.0000
0.1300 82624.9688 1.0000
0.1320 76249.7188 1.0000
0.1340 82498.3594 1.0000
0.1360 80777.9375 1.0000
0.1380 83622.9609 1.0000
0.1400 85976.4375 1.0000
0.1420 83235.6797 1.0000
0.1440 84643.2969 1.0000
0.1460 89000.2109 1.0000
0.1480 87182.9688 1.0000
0.1500 87823.4766 1.0000
0.1520 95189.2656 1.0000
0.1540 89283.2266 1.0000
0.1560 92843.2344 1.0000
0.1580 93230.5156 1.0000
0.1600 97825.7578 1.0000
0.1620 97304.4219 1.0000
0.1640 98168.3516 1.0000
0.1660 101735.8125 1.0000
0.1680 101676.2266 1.0000
0.1700 100343.0859 1.0000
0.1720 100901.6641 1.0000
0.1740 105370.2969 1.0000
0.1760 105884.1875 1.0000
0.1780 106517.2422 1.0000
0.1800 108207.8750 1.0000
0.1820 107909.9688 1.0000
0.1840 107470.5469 1.0000
0.1860 110784.7891 1.0000
0.1880 111373.1563 1.0000
0.1900 112579.6875 1.0000
0.1920 112378.5938 1.0000
0.1940 112244.5391 1.0000
0.1960 119416.6953 1.0000
0.1980 114583.1250 1.0000
0.2000 116675.9297 1.0000
0.2020 118627.2344 1.0000
0.2040 119952.9297 1.0000
0.2060 119223.0547 1.0000
0.2080 120772.1719 1.0000
0.2100 124257.7031 1.0000
0.2120 126201.5625 1.0000
0.2140 124265.1563 1.0000
0.2160 130595.7109 1.0000
0.2180 128569.9297 1.0000
0.2200 128912.5313 1.0000
0.2220 130714.8750 1.0000
0.2240 130953.2031 1.0000
0.2260 131146.8438 1.0000
0.2280 131005.3359 1.0000
0.2300 139801.0938 1.0000
0.2320 135511.2031 1.0000
0.2340 136337.9063 1.0000
0.2360 134528.1094 1.0000
0.2380 135109.0313 1.0000
0.2400 138862.6719 1.0000
0.2420 139510.6250 1.0000
0.2440 136889.0313 1.0000
0.2460 143919.6719 1.0000
0.2480 144202.6875 1.0000
0.2500 143532.3906 1.0000
0.2520 145342.1875 1.0000
0.2540 144001.5938 1.0000
0.2560 148730.9063 1.0000
0.2580 148864.9688 1.0000
0.2600 152484.5469 1.0000
0.2620 150257.6875 1.0000
0.2640 151851.5000 1.0000
0.2660 150764.1250 1.0000
0.2680 155068.9063 1.0000
0.2700 157884.1406 1.0000
0.2720 154800.7969 1.0000
0.2740 159396.0313 1.0000
0.2760 156335.0156 1.0000
0.2780 160825.9844 1.0000
0.2800 160371.6875 1.0000
0.2820 159485.4063 1.0000
0.2840 163179.4688 1.0000
0.2860 165570.1875 1.0000
0.2880 162866.6719 1.0000
0.2900 163268.8438 1.0000
0.2920 168616.3125 1.0000
0.2940 169554.7188 1.0000
0.2960 165465.9219 1.0000
0.2980 171431.5469 1.0000
0.3000 171245.3438 1.0000
0.3020 174701.0938 1.0000
0.3040 174827.7031 1.0000
0.3060 171200.6719 1.0000
0.3080 177248.2188 1.0000
0.3100 178223.8594 1.0000
0.3120 175594.8125 1.0000
0.3140 176294.9063 1.0000
0.3160 180368.7969 1.0000
0.3180 179110.1406 1.0000
0.3200 187190.9063 1.0000
0.3220 183370.2344 1.0000
0.3240 182714.8281 1.0000
0.3260 184785.2969 1.0000
0.3280 187794.1719 1.0000
0.3300 186282.2813 1.0000
0.3320 187764.3906 1.0000
0.3340 185537.5156 1.0000
0.3360 183988.3906 1.0000
0.3380 194571.5938 1.0000
0.3400 197193.1875 1.0000
0.3420 193998.1250 1.0000
0.3440 188613.4219 1.0000
0.3460 192754.3594 1.0000
0.3480 195137.6250 1.0000
0.3500 193342.7188 1.0000
0.3520 191801.0469 1.0000
0.3540 193759.7969 1.0000
0.3560 199114.7031 1.0000
0.3580 199777.5469 1.0000
0.3600 199241.3125 1.0000
0.3620 202972.6250 1.0000
0.3640 200187.1719 1.0000
0.3660 202786.4375 1.0000
0.3680 200939.3906 1.0000
0.3700 202488.5156 1.0000
0.3720 210047.9531 1.0000
0.3740 205139.9063 1.0000
0.3760 204529.2031 1.0000
0.3780 208171.1250 1.0000
0.3800 208037.0625 1.0000
0.3820 210055.4063 1.0000
0.3840 209660.6719 1.0000
0.3860 214851.7344 1.0000
0.3880 213682.4375 1.0000
0.3900 210785.2656 1.0000
0.3920 215373.0625 1.0000
0.3940 214412.3125 1.0000
0.3960 211425.7813 1.0000
0.3980 223141.0313 1.0000
0.4000 224712.5000 1.0000
0.4020 225002.9688 1.0000
0.4040 225673.2500 1.0000
0.4060 223245.2969 1.0000
0.4080 221502.5469 1.0000
0.4100 226440.3750 1.0000
0.4120 222463.2969 1.0000
0.4140 221472.7500 1.0000
0.4160 231452.6875 1.0000
0.4180 229508.8438 1.0000
0.4200 226246.7344 1.0000
0.4220 232636.8906 1.0000
0.4240 230238.7031 1.0000
0.4260 233143.3281 1.0000
0.4280 232383.6563 1.0000
0.4300 229292.8438 1.0000
0.4320 234469.0156 1.0000
0.4340 234752.0313 1.0000
0.4360 232986.9219 1.0000
0.4380 234655.2031 1.0000
0.4400 236479.8906 1.0000
0.4420 241715.6406 1.0000
0.4440 236993.7969 1.0000
0.4460 236606.5156 1.0000
0.4480 241075.1406 1.0000
0.4500 238907.8594 1.0000
0.4520 241298.5781 1.0000
0.4540 246012.9844 1.0000
0.4560 238274.7969 1.0000
0.4580 242825.3594 1.0000
0.4600 249990.0625 1.0000
0.4620 249342.1094 1.0000
0.4640 248537.7500 1.0000
0.4660 246608.7813 1.0000
0.4680 252261.6094 1.0000
0.4700 246295.9844 1.0000
0.4720 245998.0781 1.0000
0.4740 244486.1875 1.0000
0.4760 256782.3750 1.0000
0.4780 253654.3281 1.0000
0.4800 253147.8906 1.0000
0.4820 256261.0313 1.0000
0.4840 259187.9844 1.0000
0.4860 256320.6094 1.0000
0.4880 255218.3594 1.0000
0.4900 253624.5469 1.0000
0.4920 255717.3594 1.0000
0.4940 250839.1094 1.0000
0.4960 261399.9531 1.0000
0.4980 260811.5938 1.0000
0.5000 252492.4844 1.0000
0.5020 263492.7500 1.0000
0.5040 263038.4688 1.0000
0.5060 265265.3125 1.0000
0.5080 260454.0938 1.0000
0.5100 260900.9688 1.0000
0.5120 260029.5781 1.0000
0.5140 261951.0938 1.0000
0.5160 266255.8750 1.0000
0.5180 265287.6563 1.0000
0.5200 262464.9688 1.0000
0.5220 270493.6250 1.0000
0.5240 265965.4063 1.0000
0.5260 264870.5938 1.0000
0.5280 267008.0938 1.0000
0.5300 267447.5000 1.0000
0.5320 270895.7813 1.0000
