*RAS_DATA_START
*RAS_HEADER_START
*DISP_FMT_X "%.4f"
*DISP_FMT_Y "%.0f"
*DISP_FULLSCALE "28701047.9500000030"
*DISP_LINE_COLOR "255.0000000000"
*DISP_LINE_STYLE "0.0000000000"
*DISP_LINE_WIDTH "0.2500000000"
*DISP_NOTE "Collected Data-3"
*DISP_OFFSET_Y "0.0000000000"
*DISP_PEAKSEARCH_UNIT_Y "cps"
*DISP_RANGE_BOTTOM "0.0100000000"
*DISP_RANGE_LEFT "-0.0006000000"
*DISP_RANGE_LOGCUTOFF "0.0100000000"
*DISP_RANGE_RIGHT "6.0006000000"
*DISP_RANGE_TOP "28701047.9500000030"
*DISP_SCALE_MODE_Y "2.0000000000"
*DISP_TAB_NAME "2-Theta/Omega"
*DISP_TITLE_Y "Intensity"
*DISP_UNIT_Y "cps"
*DISP_WINDOW_NAME "MSG_MACROENGINE"
*FILE_COMMENT " "
*FILE_MD5 ""
*FILE_MEMO " "
*FILE_OPERATOR "administrator"
*FILE_PART_ID "MEAS_KHP2_00055"
*FILE_SAMPLE "CWO I8"
*FILE_TYPE "RAS_RAW"
*FILE_USERGROUP "System Manager"
*FILE_VERSION "1.0000000000"
*HW_ATTACHMENT_ID "ATT0025"
*HW_ATTACHMENT_NAME "標準|Standard"
*HW_COUNTER_ID-0 "CUT0025"
*HW_COUNTER_ID-1 "CUT0020"
*HW_COUNTER_ID-2 "CUT0020"
*HW_COUNTER_ID-3 "CSL0021"
*HW_COUNTER_ID-4 "CMC0021"
*HW_COUNTER_NAME-0 "D/teX Ultra|D/teX Ultra"
*HW_COUNTER_NAME-1 "None|None"
*HW_COUNTER_NAME-2 "None|None"
*HW_COUNTER_NAME-3 "BBM|BBM"
*HW_COUNTER_NAME-4 "検出器モノクロメータ|Detector monochromator"
*HW_COUNTER_SELECT_NAME "D/teX Ultra|D/teX Ultra"
*HW_GONIOMETER_ID "GON0023"
*HW_GONIOMETER_NAME "SmartLab|SmartLab"
*HW_GONIOMETER_RADIUS-0 "90.0"
*HW_GONIOMETER_RADIUS-1 "114.0"
*HW_GONIOMETER_RADIUS-2 "190.0"
*HW_GONIOMETER_RADIUS-3 "300.0"
*HW_GONIOMETER_RADIUS-4 "187.0"
*HW_GONIOMETER_RADIUS-5 "300.0"
*HW_GONIOMETER_RADIUS-6 "113.0"
*HW_GONIOMETER_RADIUS-7 "331.0"
*HW_I_OPT_ID-0 "CBO0021"
*HW_I_OPT_ID-1 "ICR0021"
*HW_I_OPT_ID-2 "ISL0021"
*HW_I_OPT_ID-3 "ISO0021"
*HW_I_OPT_ID-4 "IAD0021"
*HW_I_OPT_ID-5 "IPR0001"
*HW_I_OPT_NAME-0 "CBOユニット|CBO unit"
*HW_I_OPT_NAME-1 "標準入射光学ユニット|Standard incident optical unit"
*HW_I_OPT_NAME-2 "標準入射スリットボックス|Standard incident slit box"
*HW_I_OPT_NAME-3 "入射平行スリット|Incident parallel slit"
*HW_I_OPT_NAME-4 "長手制限スリット|Length limiting slit"
*HW_I_OPT_NAME-5 "None|None"
*HW_R_ATTENUATER_AUTOMODE "1"
*HW_R_OPT_ID-0 "RSS0021"
*HW_R_OPT_ID-1 "RCR0023"
*HW_R_OPT_ID-2 "RSO0021"
*HW_R_OPT_ID-3 "RRS0021"
*HW_R_OPT_ID-4 "ATN0021"
*HW_R_OPT_ID-5 "RFL0021"
*HW_R_OPT_ID-6 "RAD0021"
*HW_R_OPT_NAME-0 "標準受光スリットボックス1|Standard receiving slit box # 1"
*HW_R_OPT_NAME-1 "標準受光光学ユニット1|Standard receiving unit # 1"
*HW_R_OPT_NAME-2 "標準受光光学ユニット2|Standard receiving optical unit # 2"
*HW_R_OPT_NAME-3 "標準受光スリットボックス2|Standard receiving slit box # 2"
*HW_R_OPT_NAME-4 "標準アッテネータ|Standard Attenuator"
*HW_R_OPT_NAME-5 "Cu Kβ|Cu K-beta"
*HW_R_OPT_NAME-6 "調整用受光スリット|Alignment receiving slit"
*HW_SAMPLE_HOLDER_ID "SMP0021"
*HW_SAMPLE_HOLDER_NAME "χφZクレードル|Chi phi Z cradle"
*HW_XG_CURRENT_MAX "200"
*HW_XG_CURRENT_MIN "10"
*HW_XG_CURRENT_RESOLUTION "1"
*HW_XG_CURRENT_UNIT "mA"
*HW_XG_FOCUS "0.4mm x 8mm"
*HW_XG_FOCUS_TYPE "Normal"
*HW_XG_ID "1700"
*HW_XG_NAME "9kW 開放管(45kV 200mA ID:1700)|9kW Rotating anode(45kV 200mA ID:1700)"
*HW_XG_TARGET_ATOMIC_NUMBER "29.0000000000"
*HW_XG_TARGET_NAME "Cu"
*HW_XG_TYPE "Rota"
*HW_XG_VOLTAGE_MAX "45"
*HW_XG_VOLTAGE_MIN "20"
*HW_XG_VOLTAGE_RESOLUTION "1"
*HW_XG_VOLTAGE_UNIT "kV"
*HW_XG_WATT_MAX "9.00"
*HW_XG_WATT_UNIT "kW"
*HW_XG_WAVE_LENGTH_ALPHA1 "1.540593"
*HW_XG_WAVE_LENGTH_ALPHA2 "1.544414"
*HW_XG_WAVE_LENGTH_BETA "1.392250"
*MEAS_COND_AXIS_NAME-0 "Theta/2-Theta"
*MEAS_COND_AXIS_NAME-1 "2-Theta"
*MEAS_COND_AXIS_NAME-2 "Omega"
*MEAS_COND_AXIS_NAME-3 "Chi"
*MEAS_COND_AXIS_NAME-4 "Phi"
*MEAS_COND_AXIS_NAME-5 "Z"
*MEAS_COND_AXIS_NAME-6 "2-Theta/Omega"
*MEAS_COND_AXIS_NAME-7 "Theta_s"
*MEAS_COND_AXIS_NAME-8 "Theta_d"
*MEAS_COND_AXIS_NAME-9 "Ts"
*MEAS_COND_AXIS_NAME-10 "CBO selection slit"
*MEAS_COND_AXIS_NAME-11 "M"
*MEAS_COND_AXIS_NAME-12 "Incident parallel slit"
*MEAS_COND_AXIS_NAME-13 "Incident slit"
*MEAS_COND_AXIS_NAME-14 ""
*MEAS_COND_AXIS_NAME-15 "Zs"
*MEAS_COND_AXIS_NAME-16 "Incident optical device"
*MEAS_COND_AXIS_NAME-17 "Omega_m"
*MEAS_COND_AXIS_NAME-18 "Length limiting slit"
*MEAS_COND_AXIS_NAME-19 "Center slit"
*MEAS_COND_AXIS_NAME-20 "Filter"
*MEAS_COND_AXIS_NAME-21 "Receiving slit # 1"
*MEAS_COND_AXIS_NAME-22 "Receiving slit # 2"
*MEAS_COND_AXIS_NAME-23 "Receiving optical device"
*MEAS_COND_AXIS_NAME-24 "Receiving parallel slit"
*MEAS_COND_AXIS_NAME-25 "Alignment receiving slit"
*MEAS_COND_AXIS_NAME-26 ""
*MEAS_COND_AXIS_NAME-27 ""
*MEAS_COND_AXIS_NAME-28 "Zd"
*MEAS_COND_AXIS_NAME-29 "Attenuator"
*MEAS_COND_AXIS_NAME-30 "Diffracted beam monochromator"
*MEAS_COND_AXIS_NAME-31 "Monochromator slit"
*MEAS_COND_AXIS_NAME-32 "Primary beam"
*MEAS_COND_AXIS_NAME-33 ""
*MEAS_COND_AXIS_NAME-34 ""
*MEAS_COND_AXIS_NAME-35 "PHA"
*MEAS_COND_AXIS_NAME_INTERNAL-0 "TwoThetaTheta"
*MEAS_COND_AXIS_NAME_INTERNAL-1 "TwoTheta"
*MEAS_COND_AXIS_NAME_INTERNAL-2 "Omega"
*MEAS_COND_AXIS_NAME_INTERNAL-3 "Chi"
*MEAS_COND_AXIS_NAME_INTERNAL-4 "Phi"
*MEAS_COND_AXIS_NAME_INTERNAL-5 "Z"
*MEAS_COND_AXIS_NAME_INTERNAL-6 "TwoThetaOmega"
*MEAS_COND_AXIS_NAME_INTERNAL-7 "ThetaS"
*MEAS_COND_AXIS_NAME_INTERNAL-8 "ThetaD"
*MEAS_COND_AXIS_NAME_INTERNAL-9 "Ts"
*MEAS_COND_AXIS_NAME_INTERNAL-10 "CBO"
*MEAS_COND_AXIS_NAME_INTERNAL-11 "CBO-M"
*MEAS_COND_AXIS_NAME_INTERNAL-12 "IncidentSollerSlit"
*MEAS_COND_AXIS_NAME_INTERNAL-13 "IncidentSlitBox"
*MEAS_COND_AXIS_NAME_INTERNAL-14 "IncidentSlitBox-_Axis"
*MEAS_COND_AXIS_NAME_INTERNAL-15 "Zs"
*MEAS_COND_AXIS_NAME_INTERNAL-16 "IncidentMonochromator"
*MEAS_COND_AXIS_NAME_INTERNAL-17 "IncidentMonochromator-OmegaM"
*MEAS_COND_AXIS_NAME_INTERNAL-18 "IncidentAxdSlit"
*MEAS_COND_AXIS_NAME_INTERNAL-19 "CenterSlit"
*MEAS_COND_AXIS_NAME_INTERNAL-20 "Filter"
*MEAS_COND_AXIS_NAME_INTERNAL-21 "ReceivingSlitBox1"
*MEAS_COND_AXIS_NAME_INTERNAL-22 "ReceivingSlitBox2"
*MEAS_COND_AXIS_NAME_INTERNAL-23 "ReceivingOptics"
*MEAS_COND_AXIS_NAME_INTERNAL-24 "ReceivingSollerSlit"
*MEAS_COND_AXIS_NAME_INTERNAL-25 "ReceivingAxdSlit"
*MEAS_COND_AXIS_NAME_INTERNAL-26 "ReceivingSlitBox1-_Axis"
*MEAS_COND_AXIS_NAME_INTERNAL-27 "ReceivingSlitBox2-_Axis"
*MEAS_COND_AXIS_NAME_INTERNAL-28 "ReceivingSlitBox2-Zd"
*MEAS_COND_AXIS_NAME_INTERNAL-29 "Attenuator"
*MEAS_COND_AXIS_NAME_INTERNAL-30 "CounterMonochromator"
*MEAS_COND_AXIS_NAME_INTERNAL-31 "CounterSlit"
*MEAS_COND_AXIS_NAME_INTERNAL-32 "IncidentPrimary"
*MEAS_COND_AXIS_NAME_INTERNAL-33 "AlphaR"
*MEAS_COND_AXIS_NAME_INTERNAL-34 "BetaR"
*MEAS_COND_AXIS_NAME_INTERNAL-35 "PHA"
*MEAS_COND_AXIS_NAME_MAGICNO-0 "83951616.0000000000"
*MEAS_COND_AXIS_NAME_MAGICNO-1 "268632064.0000000000"
*MEAS_COND_AXIS_NAME_MAGICNO-2 "268500992.0000000000"
*MEAS_COND_AXIS_NAME_MAGICNO-3 "268500992.0000000000"
*MEAS_COND_AXIS_NAME_MAGICNO-4 "268500992.0000000000"
*MEAS_COND_AXIS_NAME_MAGICNO-5 "285278208.0000000000"
*MEAS_COND_AXIS_NAME_MAGICNO-6 "83951616.0000000000"
*MEAS_COND_AXIS_NAME_MAGICNO-7 "131072.0000000000"
*MEAS_COND_AXIS_NAME_MAGICNO-8 "131072.0000000000"
*MEAS_COND_AXIS_NAME_MAGICNO-9 "318898176.0000000000"
*MEAS_COND_AXIS_NAME_MAGICNO-10 "20971521.0000000000"
*MEAS_COND_AXIS_NAME_MAGICNO-11 "285343744.0000000000"
*MEAS_COND_AXIS_NAME_MAGICNO-12 "20971521.0000000000"
*MEAS_COND_AXIS_NAME_MAGICNO-13 "22020097.0000000000"
*MEAS_COND_AXIS_NAME_MAGICNO-14 "25165824.0000000000"
*MEAS_COND_AXIS_NAME_MAGICNO-15 "318898176.0000000000"
*MEAS_COND_AXIS_NAME_MAGICNO-16 "20971521.0000000000"
*MEAS_COND_AXIS_NAME_MAGICNO-17 "285343744.0000000000"
*MEAS_COND_AXIS_NAME_MAGICNO-18 "20971521.0000000000"
*MEAS_COND_AXIS_NAME_MAGICNO-19 "20971521.0000000000"
*MEAS_COND_AXIS_NAME_MAGICNO-20 "20971521.0000000000"
*MEAS_COND_AXIS_NAME_MAGICNO-21 "23068673.0000000000"
*MEAS_COND_AXIS_NAME_MAGICNO-22 "23068673.0000000000"
*MEAS_COND_AXIS_NAME_MAGICNO-23 "20971521.0000000000"
*MEAS_COND_AXIS_NAME_MAGICNO-24 "20971521.0000000000"
*MEAS_COND_AXIS_NAME_MAGICNO-25 "20971521.0000000000"
*MEAS_COND_AXIS_NAME_MAGICNO-26 "25165824.0000000000"
*MEAS_COND_AXIS_NAME_MAGICNO-27 "25165824.0000000000"
*MEAS_COND_AXIS_NAME_MAGICNO-28 "285343744.0000000000"
*MEAS_COND_AXIS_NAME_MAGICNO-29 "17301505.0000000000"
*MEAS_COND_AXIS_NAME_MAGICNO-30 "20971521.0000000000"
*MEAS_COND_AXIS_NAME_MAGICNO-31 "20971521.0000000000"
*MEAS_COND_AXIS_NAME_MAGICNO-32 "20971521.0000000000"
*MEAS_COND_AXIS_NAME_MAGICNO-33 "8388608.0000000000"
*MEAS_COND_AXIS_NAME_MAGICNO-34 "8388608.0000000000"
*MEAS_COND_AXIS_NAME_MAGICNO-35 "0.0000000000"
*MEAS_COND_AXIS_OFFSET-0 "-"
*MEAS_COND_AXIS_OFFSET-1 "0.9127000000"
*MEAS_COND_AXIS_OFFSET-2 "0.9118000000"
*MEAS_COND_AXIS_OFFSET-3 "0.0000000000"
*MEAS_COND_AXIS_OFFSET-4 "0.0000000000"
*MEAS_COND_AXIS_OFFSET-5 "-"
*MEAS_COND_AXIS_OFFSET-6 "-"
*MEAS_COND_AXIS_OFFSET-7 "0.9118000000"
*MEAS_COND_AXIS_OFFSET-8 "0.0009000000"
*MEAS_COND_AXIS_OFFSET-9 "-"
*MEAS_COND_AXIS_OFFSET-10 "-"
*MEAS_COND_AXIS_OFFSET-11 "-"
*MEAS_COND_AXIS_OFFSET-12 "-"
*MEAS_COND_AXIS_OFFSET-13 "-"
*MEAS_COND_AXIS_OFFSET-14 "-"
*MEAS_COND_AXIS_OFFSET-15 "-"
*MEAS_COND_AXIS_OFFSET-16 "-"
*MEAS_COND_AXIS_OFFSET-17 "-"
*MEAS_COND_AXIS_OFFSET-18 "-"
*MEAS_COND_AXIS_OFFSET-19 "-"
*MEAS_COND_AXIS_OFFSET-20 "-"
*MEAS_COND_AXIS_OFFSET-21 "-"
*MEAS_COND_AXIS_OFFSET-22 "-"
*MEAS_COND_AXIS_OFFSET-23 "-"
*MEAS_COND_AXIS_OFFSET-24 "-"
*MEAS_COND_AXIS_OFFSET-25 "-"
*MEAS_COND_AXIS_OFFSET-26 "-"
*MEAS_COND_AXIS_OFFSET-27 "-"
*MEAS_COND_AXIS_OFFSET-28 "-"
*MEAS_COND_AXIS_OFFSET-29 "-"
*MEAS_COND_AXIS_OFFSET-30 "-"
*MEAS_COND_AXIS_OFFSET-31 "-"
*MEAS_COND_AXIS_OFFSET-32 "-"
*MEAS_COND_AXIS_OFFSET-33 "0.0000000000"
*MEAS_COND_AXIS_OFFSET-34 "0.0000000000"
*MEAS_COND_AXIS_OFFSET-35 "-"
*MEAS_COND_AXIS_POSITION-0 "-0.0008000000"
*MEAS_COND_AXIS_POSITION-1 "-0.0008000000"
*MEAS_COND_AXIS_POSITION-2 "-0.0004000000"
*MEAS_COND_AXIS_POSITION-3 "0.0000000000"
*MEAS_COND_AXIS_POSITION-4 "0.0000000000"
*MEAS_COND_AXIS_POSITION-5 "-1.4213000000"
*MEAS_COND_AXIS_POSITION-6 "-0.0008000000"
*MEAS_COND_AXIS_POSITION-7 "-0.0004000000"
*MEAS_COND_AXIS_POSITION-8 "-0.0004000000"
*MEAS_COND_AXIS_POSITION-9 "-4.8793100000"
*MEAS_COND_AXIS_POSITION-10 "PB"
*MEAS_COND_AXIS_POSITION-11 "0.0000000000"
*MEAS_COND_AXIS_POSITION-12 "Soller_slit_open_s"
*MEAS_COND_AXIS_POSITION-13 "0.250mm"
*MEAS_COND_AXIS_POSITION-14 "0.2500000000"
*MEAS_COND_AXIS_POSITION-15 "-1.7884400000"
*MEAS_COND_AXIS_POSITION-16 "Ge(220)x2"
*MEAS_COND_AXIS_POSITION-17 "0.0000000000"
*MEAS_COND_AXIS_POSITION-18 "2.0mm"
*MEAS_COND_AXIS_POSITION-19 "None"
*MEAS_COND_AXIS_POSITION-20 "None"
*MEAS_COND_AXIS_POSITION-21 "0.250mm"
*MEAS_COND_AXIS_POSITION-22 "0.250mm"
*MEAS_COND_AXIS_POSITION-23 "No_unit"
*MEAS_COND_AXIS_POSITION-24 "Soller_slit_5.0deg"
*MEAS_COND_AXIS_POSITION-25 "None"
*MEAS_COND_AXIS_POSITION-26 "0.2500000000"
*MEAS_COND_AXIS_POSITION-27 "0.2500000000"
*MEAS_COND_AXIS_POSITION-28 "0.0868700000"
*MEAS_COND_AXIS_POSITION-29 "1/10000"
*MEAS_COND_AXIS_POSITION-30 "None"
*MEAS_COND_AXIS_POSITION-31 "None"
*MEAS_COND_AXIS_POSITION-32 "None"
*MEAS_COND_AXIS_POSITION-33 "0.0000000000"
*MEAS_COND_AXIS_POSITION-34 "0.0000000000"
*MEAS_COND_AXIS_POSITION-35 "34.0000000000"
*MEAS_COND_AXIS_UNIT-0 "deg"
*MEAS_COND_AXIS_UNIT-1 "deg"
*MEAS_COND_AXIS_UNIT-2 "deg"
*MEAS_COND_AXIS_UNIT-3 "deg"
*MEAS_COND_AXIS_UNIT-4 "deg"
*MEAS_COND_AXIS_UNIT-5 "mm"
*MEAS_COND_AXIS_UNIT-6 "deg"
*MEAS_COND_AXIS_UNIT-7 "deg"
*MEAS_COND_AXIS_UNIT-8 "deg"
*MEAS_COND_AXIS_UNIT-9 "mm"
*MEAS_COND_AXIS_UNIT-10 ""
*MEAS_COND_AXIS_UNIT-11 "pulse"
*MEAS_COND_AXIS_UNIT-12 ""
*MEAS_COND_AXIS_UNIT-13 ""
*MEAS_COND_AXIS_UNIT-14 "mm"
*MEAS_COND_AXIS_UNIT-15 "mm"
*MEAS_COND_AXIS_UNIT-16 ""
*MEAS_COND_AXIS_UNIT-17 "pulse"
*MEAS_COND_AXIS_UNIT-18 ""
*MEAS_COND_AXIS_UNIT-19 ""
*MEAS_COND_AXIS_UNIT-20 ""
*MEAS_COND_AXIS_UNIT-21 ""
*MEAS_COND_AXIS_UNIT-22 ""
*MEAS_COND_AXIS_UNIT-23 ""
*MEAS_COND_AXIS_UNIT-24 ""
*MEAS_COND_AXIS_UNIT-25 ""
*MEAS_COND_AXIS_UNIT-26 "mm"
*MEAS_COND_AXIS_UNIT-27 "mm"
*MEAS_COND_AXIS_UNIT-28 "mm"
*MEAS_COND_AXIS_UNIT-29 ""
*MEAS_COND_AXIS_UNIT-30 ""
*MEAS_COND_AXIS_UNIT-31 ""
*MEAS_COND_AXIS_UNIT-32 ""
*MEAS_COND_AXIS_UNIT-33 "deg"
*MEAS_COND_AXIS_UNIT-34 "deg"
*MEAS_COND_AXIS_UNIT-35 "div"
*MEAS_COND_COUNTER_CNTLOSS_CORR "0.0000000000"
*MEAS_COND_COUNTER_PHABASE "34.0000000000"
*MEAS_COND_COUNTER_PHAWINDOW "19.0000000000"
*MEAS_COND_COUNTER_PHA_UNIT "div"
*MEAS_COND_COUNTER_TAUDIFF "2.0000000000"
*MEAS_COND_COUNTER_TAUINT "0.1000000000"
*MEAS_COND_IRRADIATION_MODE "OFF"
*MEAS_COND_IRRADIATION_WIDTH ""
*MEAS_COND_OPT_ATTR "High resolution parallel beam Ge(220)x2/RS"
*MEAS_COND_OPT_NAME "@High resolution PB-Ge(220)x2"
*MEAS_COND_UNSYMMETRIC_MODE "OFF"
*MEAS_COND_XG_CURRENT "200.0000000000"
*MEAS_COND_XG_VOLTAGE "45.0000000000"
*MEAS_COND_XG_WAVE_TYPE "Ka1"
*MEAS_DATA_COUNT "3001.0000000000"
*MEAS_SCAN_AXIS_X "2-Theta/Omega"
*MEAS_SCAN_AXIS_X_INTERNAL "TwoThetaOmega"
*MEAS_SCAN_END_TIME "11/06/23 15:48:58"
*MEAS_SCAN_MODE "CONTINUOUS"
*MEAS_SCAN_MONITOR "0"
*MEAS_SCAN_RESOLUTION_X "0.0002"
*MEAS_SCAN_SPEED "0.500000"
*MEAS_SCAN_SPEED_UNIT "deg/min"
*MEAS_SCAN_SPEED_USER "0.500000"
*MEAS_SCAN_START "0.0000000000"
*MEAS_SCAN_START_TIME "11/06/23 15:36:28"
*MEAS_SCAN_STEP "0.0020000000"
*MEAS_SCAN_STOP "6.0000000000"
*MEAS_SCAN_UNIT_X "deg"
*MEAS_SCAN_UNIT_Y "counts"
*RAS_HEADER_END
*RAS_INT_START
0.0000 5188807.5000 1.0000
0.0020 5363413.5000 1.0000
0.0040 5355414.0000 1.0000
0.0060 5407685.5000 1.0000
0.0080 5565465.5000 1.0000
0.0100 5493471.5000 1.0000
0.0120 5488644.5000 1.0000
0.0140 5412651.0000 1.0000
0.0160 5530020.5000 1.0000
0.0180 5404927.5000 1.0000
0.0200 5409340.5000 1.0000
0.0220 5262456.5000 1.0000
0.0240 5335554.0000 1.0000
0.0260 5158741.0000 1.0000
0.0280 5091436.0000 1.0000
0.0300 4888832.5000 1.0000
0.0320 4852973.5000 1.0000
0.0340 4580444.5000 1.0000
0.0360 4382254.0000 1.0000
0.0380 4123241.2500 1.0000
0.0400 3977184.7500 1.0000
0.0420 3513913.0000 1.0000
0.0440 3354340.2500 1.0000
0.0460 3095603.2500 1.0000
0.0480 2654122.7500 1.0000
0.0500 2367802.0000 1.0000
0.0520 2046311.6250 1.0000
0.0540 1713649.7500 1.0000
0.0560 1542767.5000 1.0000
0.0580 1297546.6250 1.0000
0.0600 1102882.7500 1.0000
0.0620 885116.4375 1.0000
0.0640 720790.0000 1.0000
0.0660 569094.9375 1.0000
0.0680 442379.4688 1.0000
0.0700 351234.3125 1.0000
0.0720 289418.2813 1.0000
0.0740 240002.6719 1.0000
0.0760 203769.5313 1.0000
0.0780 168675.8906 1.0000
0.0800 148306.3750 1.0000
0.0820 137343.3438 1.0000
0.0840 122246.8203 1.0000
0.0860 106681.0938 1.0000
0.0880 104201.0000 1.0000
0.0900 100246.2656 1.0000
0.0920 92247.4219 1.0000
0.0940 89260.8828 1.0000
0.0960 90742.9844 1.0000
0.0980 93051.7734 1.0000
0.1000 91510.0938 1.0000
0.1020 92820.8984 1.0000
0.1040 88679.9609 1.0000
0.1060 93074.1172 1.0000
0.1080 94645.5859 1.0000
0.1100 93647.5859 1.0000
0.1120 96954.3750 1.0000
0.1140 94548.7578 1.0000
0.1160 98242.8281 1.0000
0.1180 97535.2969 1.0000
0.1200 98302.4141 1.0000
0.1220 101460.2422 1.0000
0.1240 103538.1563 1.0000
0.1260 107597.1641 1.0000
0.1280 106249.1250 1.0000
0.1300 106256.5703 1.0000
0.1320 114009.6484 1.0000
0.1340 110166.6250 1.0000
0.1360 109749.5547 1.0000
0.1380 117435.5938 1.0000
0.1400 124496.0313 1.0000
0.1420 117755.8438 1.0000
0.1440 120675.3516 1.0000
0.1460 118567.6484 1.0000
0.1480 123371.4297 1.0000
0.1500 122082.9766 1.0000
0.1520 129620.0625 1.0000
0.1540 125687.6641 1.0000
0.1560 130737.2188 1.0000
0.1580 128838.0469 1.0000
0.1600 134103.5781 1.0000
0.1620 135190.9531 1.0000
0.1640 136032.5469 1.0000
0.1660 135451.6250 1.0000
0.1680 136918.8281 1.0000
0.1700 139279.7500 1.0000
0.1720 139562.7656 1.0000
0.1740 146608.2969 1.0000
0.1760 147934.0000 1.0000
0.1780 143569.6250 1.0000
0.1800 147420.0938 1.0000
0.1820 154353.9219 1.0000
0.1840 153735.7656 1.0000
0.1860 156208.4063 1.0000
0.1880 155910.5000 1.0000
0.1900 153594.2656 1.0000
0.1920 158211.8438 1.0000
0.1940 161131.3438 1.0000
0.1960 161980.3906 1.0000
0.1980 161086.6563 1.0000
0.2000 168504.5938 1.0000
0.2020 165957.4688 1.0000
0.2040 166381.9844 1.0000
0.2060 165577.6406 1.0000
0.2080 172325.2656 1.0000
0.2100 167134.2188 1.0000
0.2120 172064.5938 1.0000
0.2140 175006.4531 1.0000
0.2160 176555.5781 1.0000
0.2180 168340.7344 1.0000
0.2200 177620.5938 1.0000
0.2220 180875.2500 1.0000
0.2240 185135.3438 1.0000
0.2260 181731.7344 1.0000
0.2280 175557.5781 1.0000
0.2300 189067.7344 1.0000
0.2320 187146.2188 1.0000
0.2340 190244.4688 1.0000
0.2360 193811.9219 1.0000
0.2380 193461.8906 1.0000
0.2400 197707.0938 1.0000
0.2420 198198.6406 1.0000
0.2440 200202.0781 1.0000
0.2460 198146.5000 1.0000
0.2480 196939.9688 1.0000
0.2500 199852.0313 1.0000
0.2520 200783.0000 1.0000
0.2540 202719.4063 1.0000
0.2560 210465.0313 1.0000
0.2580 209690.4531 1.0000
0.2600 212602.5156 1.0000
0.2620 211984.3594 1.0000
0.2640 215499.6719 1.0000
0.2660 208044.5156 1.0000
0.2680 220310.9063 1.0000
0.2700 216698.7656 1.0000
0.2720 219901.2813 1.0000
0.2740 220549.2344 1.0000
0.2760 224399.7031 1.0000
0.2780 225166.8125 1.0000
0.2800 229680.1406 1.0000
0.2820 227505.4063 1.0000
0.2840 226425.4844 1.0000
0.2860 232480.4688 1.0000
0.2880 230484.4844 1.0000
0.2900 232711.3594 1.0000
0.2920 232629.4219 1.0000
0.2940 237232.1094 1.0000
0.2960 239310.0313 1.0000
0.2980 243421.1719 1.0000
0.3000 236323.5000 1.0000
0.3020 242207.1875 1.0000
0.3040 242341.2500 1.0000
0.3060 243510.5469 1.0000
0.3080 241529.4531 1.0000
0.3100 254466.1406 1.0000
0.3120 248507.9688 1.0000
0.3140 249923.0313 1.0000
0.3160 251308.2969 1.0000
0.3180 247122.6875 1.0000
0.3200 250645.4531 1.0000
0.3220 256454.6719 1.0000
0.3240 256104.6250 1.0000
0.3260 261228.6563 1.0000
0.3280 264699.2813 1.0000
0.3300 267440.0625 1.0000
0.3320 259992.3438 1.0000
0.3340 263433.1875 1.0000
0.3360 263701.3125 1.0000
0.3380 262293.6875 1.0000
0.3400 264982.3125 1.0000
0.3420 270739.4063 1.0000
0.3440 272385.3438 1.0000
0.3460 274947.3750 1.0000
0.3480 273591.8750 1.0000
0.3500 275118.6563 1.0000
0.3520 276913.5625 1.0000
0.3540 279311.7188 1.0000
0.3560 281866.2813 1.0000
0.3580 279870.2813 1.0000
0.3600 284696.4063 1.0000
0.3620 283199.4375 1.0000
0.3640 286945.6250 1.0000
0.3660 288710.7188 1.0000
0.3680 289984.2813 1.0000
0.3700 288889.4688 1.0000
0.3720 293976.2813 1.0000
0.3740 288248.9688 1.0000
0.3760 299241.8125 1.0000
0.3780 296985.1563 1.0000
0.3800 309273.8750 1.0000
0.3820 301878.3125 1.0000
0.3840 294981.7188 1.0000
0.3860 302876.2813 1.0000
0.3880 305356.3750 1.0000
0.3900 307754.5625 1.0000
0.3920 308320.5625 1.0000
0.3940 306481.0000 1.0000
0.3960 313533.9688 1.0000
0.3980 301081.4063 1.0000
0.4000 304529.6875 1.0000
0.4020 305319.1563 1.0000
0.4040 312387.0313 1.0000
0.4060 321964.8125 1.0000
0.4080 312014.6563 1.0000
0.4100 315939.5938 1.0000
0.4120 312759.4063 1.0000
0.4140 322843.6250 1.0000
0.4160 318315.4063 1.0000
0.4180 323886.3125 1.0000
0.4200 322798.9375 1.0000
0.4220 326224.8750 1.0000
0.4240 323469.2500 1.0000
0.4260 326619.6250 1.0000
0.4280 331088.2500 1.0000
0.4300 334342.9063 1.0000
0.4320 336860.2188 1.0000
0.4340 335534.5313 1.0000
0.4360 333285.3125 1.0000
0.4380 328228.3125 1.0000
0.4400 337135.7813 1.0000
0.4420 335929.2500 1.0000
0.4440 337664.5625 1.0000
0.4460 338014.6250 1.0000
0.4480 335169.5938 1.0000
0.4500 342766.2813 1.0000
0.4520 349893.7188 1.0000
0.4540 341008.5938 1.0000
0.4560 345924.0938 1.0000
0.4580 351509.8750 1.0000
0.4600 346423.0938 1.0000
0.4620 354124.0313 1.0000
0.4640 355211.4063 1.0000
0.4660 350564.0313 1.0000
0.4680 356321.0938 1.0000
0.4700 349186.1875 1.0000
0.4720 354287.8750 1.0000
0.4740 354213.4063 1.0000
0.4760 355859.3438 1.0000
0.4780 360886.5625 1.0000
0.4800 357833.0000 1.0000
0.4820 370620.7188 1.0000
0.4840 365980.7813 1.0000
0.4860 371507.0000 1.0000
0.4880 362197.3750 1.0000
0.4900 364535.9375 1.0000
0.4920 373517.9063 1.0000
0.4940 369741.9063 1.0000
0.4960 366852.1875 1.0000
0.4980 379342.0000 1.0000
0.5000 365578.6250 1.0000
0.5020 374932.9688 1.0000
0.5040 377077.9063 1.0000
0.5060 367783.1563 1.0000
0.5080 367760.7813 1.0000
0.5100 377427.9375 1.0000
0.5120 376571.4375 1.0000
0.5140 380094.2188 1.0000
0.5160 378254.6250 1.0000
0.5180 373756.2188 1.0000
0.5200 374411.5938 1.0000
0.5220 386499.2500 1.0000
0.5240 380176.1250 1.0000
0.5260 386603.5313 1.0000
0.5280 386678.0000 1.0000
0.5300 380786.8750 1.0000
