*RAS_DATA_START
*RAS_HEADER_START
*DISP_FMT_X "%.4f"
*DISP_FMT_Y "%.0f"
*DISP_FULLSCALE "28204537.7500000040"
*DISP_LINE_COLOR "255.0000000000"
*DISP_LINE_STYLE "0.0000000000"
*DISP_LINE_WIDTH "0.2500000000"
*DISP_NOTE "Collected Data-7"
*DISP_OFFSET_Y "0.0000000000"
*DISP_PEAKSEARCH_UNIT_Y "cps"
*DISP_RANGE_BOTTOM "0.0100000000"
*DISP_RANGE_LEFT "-0.0006000000"
*DISP_RANGE_LOGCUTOFF "0.0100000000"
*DISP_RANGE_RIGHT "6.0006000000"
*DISP_RANGE_TOP "28204537.7500000040"
*DISP_SCALE_MODE_Y "2.0000000000"
*DISP_TAB_NAME "2-Theta/Omega"
*DISP_TITLE_Y "Intensity"
*DISP_UNIT_Y "cps"
*DISP_WINDOW_NAME "MSG_MACROENGINE"
*FILE_COMMENT " "
*FILE_MD5 ""
*FILE_MEMO " "
*FILE_OPERATOR "administrator"
*FILE_PART_ID "MEAS_KHP2_00055"
*FILE_SAMPLE "CWO sub"
*FILE_TYPE "RAS_RAW"
*FILE_USERGROUP "System Manager"
*FILE_VERSION "1.0000000000"
*HW_ATTACHMENT_ID "ATT0025"
*HW_ATTACHMENT_NAME "標準|Standard"
*HW_COUNTER_ID-0 "CUT0025"
*HW_COUNTER_ID-1 "CUT0020"
*HW_COUNTER_ID-2 "CUT0020"
*HW_COUNTER_ID-3 "CSL0021"
*HW_COUNTER_ID-4 "CMC0021"
*HW_COUNTER_NAME-0 "D/teX Ultra|D/teX Ultra"
*HW_COUNTER_NAME-1 "None|None"
*HW_COUNTER_NAME-2 "None|None"
*HW_COUNTER_NAME-3 "BBM|BBM"
*HW_COUNTER_NAME-4 "検出器モノクロメータ|Detector monochromator"
*HW_COUNTER_SELECT_NAME "D/teX Ultra|D/teX Ultra"
*HW_GONIOMETER_ID "GON0023"
*HW_GONIOMETER_NAME "SmartLab|SmartLab"
*HW_GONIOMETER_RADIUS-0 "90.0"
*HW_GONIOMETER_RADIUS-1 "114.0"
*HW_GONIOMETER_RADIUS-2 "190.0"
*HW_GONIOMETER_RADIUS-3 "300.0"
*HW_GONIOMETER_RADIUS-4 "187.0"
*HW_GONIOMETER_RADIUS-5 "300.0"
*HW_GONIOMETER_RADIUS-6 "113.0"
*HW_GONIOMETER_RADIUS-7 "331.0"
*HW_I_OPT_ID-0 "CBO0021"
*HW_I_OPT_ID-1 "ICR0021"
*HW_I_OPT_ID-2 "ISL0021"
*HW_I_OPT_ID-3 "ISO0021"
*HW_I_OPT_ID-4 "IAD0021"
*HW_I_OPT_ID-5 "IPR0001"
*HW_I_OPT_NAME-0 "CBOユニット|CBO unit"
*HW_I_OPT_NAME-1 "標準入射光学ユニット|Standard incident optical unit"
*HW_I_OPT_NAME-2 "標準入射スリットボックス|Standard incident slit box"
*HW_I_OPT_NAME-3 "入射平行スリット|Incident parallel slit"
*HW_I_OPT_NAME-4 "長手制限スリット|Length limiting slit"
*HW_I_OPT_NAME-5 "None|None"
*HW_R_ATTENUATER_AUTOMODE "1"
*HW_R_OPT_ID-0 "RSS0021"
*HW_R_OPT_ID-1 "RCR0023"
*HW_R_OPT_ID-2 "RSO0021"
*HW_R_OPT_ID-3 "RRS0021"
*HW_R_OPT_ID-4 "ATN0021"
*HW_R_OPT_ID-5 "RFL0021"
*HW_R_OPT_ID-6 "RAD0021"
*HW_R_OPT_NAME-0 "標準受光スリットボックス1|Standard receiving slit box # 1"
*HW_R_OPT_NAME-1 "標準受光光学ユニット1|Standard receiving unit # 1"
*HW_R_OPT_NAME-2 "標準受光光学ユニット2|Standard receiving optical unit # 2"
*HW_R_OPT_NAME-3 "標準受光スリットボックス2|Standard receiving slit box # 2"
*HW_R_OPT_NAME-4 "標準アッテネータ|Standard Attenuator"
*HW_R_OPT_NAME-5 "Cu Kβ|Cu K-beta"
*HW_R_OPT_NAME-6 "調整用受光スリット|Alignment receiving slit"
*HW_SAMPLE_HOLDER_ID "SMP0021"
*HW_SAMPLE_HOLDER_NAME "χφZクレードル|Chi phi Z cradle"
*HW_XG_CURRENT_MAX "200"
*HW_XG_CURRENT_MIN "10"
*HW_XG_CURRENT_RESOLUTION "1"
*HW_XG_CURRENT_UNIT "mA"
*HW_XG_FOCUS "0.4mm x 8mm"
*HW_XG_FOCUS_TYPE "Normal"
*HW_XG_ID "1700"
*HW_XG_NAME "9kW 開放管(45kV 200mA ID:1700)|9kW Rotating anode(45kV 200mA ID:1700)"
*HW_XG_TARGET_ATOMIC_NUMBER "29.0000000000"
*HW_XG_TARGET_NAME "Cu"
*HW_XG_TYPE "Rota"
*HW_XG_VOLTAGE_MAX "45"
*HW_XG_VOLTAGE_MIN "20"
*HW_XG_VOLTAGE_RESOLUTION "1"
*HW_XG_VOLTAGE_UNIT "kV"
*HW_XG_WATT_MAX "9.00"
*HW_XG_WATT_UNIT "kW"
*HW_XG_WAVE_LENGTH_ALPHA1 "1.540593"
*HW_XG_WAVE_LENGTH_ALPHA2 "1.544414"
*HW_XG_WAVE_LENGTH_BETA "1.392250"
*MEAS_COND_AXIS_NAME-0 "Theta/2-Theta"
*MEAS_COND_AXIS_NAME-1 "2-Theta"
*MEAS_COND_AXIS_NAME-2 "Omega"
*MEAS_COND_AXIS_NAME-3 "Chi"
*MEAS_COND_AXIS_NAME-4 "Phi"
*MEAS_COND_AXIS_NAME-5 "Z"
*MEAS_COND_AXIS_NAME-6 "2-Theta/Omega"
*MEAS_COND_AXIS_NAME-7 "Theta_s"
*MEAS_COND_AXIS_NAME-8 "Theta_d"
*MEAS_COND_AXIS_NAME-9 "Ts"
*MEAS_COND_AXIS_NAME-10 "CBO selection slit"
*MEAS_COND_AXIS_NAME-11 "M"
*MEAS_COND_AXIS_NAME-12 "Incident parallel slit"
*MEAS_COND_AXIS_NAME-13 "Incident slit"
*MEAS_COND_AXIS_NAME-14 ""
*MEAS_COND_AXIS_NAME-15 "Zs"
*MEAS_COND_AXIS_NAME-16 "Incident optical device"
*MEAS_COND_AXIS_NAME-17 "Omega_m"
*MEAS_COND_AXIS_NAME-18 "Length limiting slit"
*MEAS_COND_AXIS_NAME-19 "Center slit"
*MEAS_COND_AXIS_NAME-20 "Filter"
*MEAS_COND_AXIS_NAME-21 "Receiving slit # 1"
*MEAS_COND_AXIS_NAME-22 "Receiving slit # 2"
*MEAS_COND_AXIS_NAME-23 "Receiving optical device"
*MEAS_COND_AXIS_NAME-24 "Receiving parallel slit"
*MEAS_COND_AXIS_NAME-25 "Alignment receiving slit"
*MEAS_COND_AXIS_NAME-26 ""
*MEAS_COND_AXIS_NAME-27 ""
*MEAS_COND_AXIS_NAME-28 "Zd"
*MEAS_COND_AXIS_NAME-29 "Attenuator"
*MEAS_COND_AXIS_NAME-30 "Diffracted beam monochromator"
*MEAS_COND_AXIS_NAME-31 "Monochromator slit"
*MEAS_COND_AXIS_NAME-32 "Primary beam"
*MEAS_COND_AXIS_NAME-33 ""
*MEAS_COND_AXIS_NAME-34 ""
*MEAS_COND_AXIS_NAME-35 "PHA"
*MEAS_COND_AXIS_NAME_INTERNAL-0 "TwoThetaTheta"
*MEAS_COND_AXIS_NAME_INTERNAL-1 "TwoTheta"
*MEAS_COND_AXIS_NAME_INTERNAL-2 "Omega"
*MEAS_COND_AXIS_NAME_INTERNAL-3 "Chi"
*MEAS_COND_AXIS_NAME_INTERNAL-4 "Phi"
*MEAS_COND_AXIS_NAME_INTERNAL-5 "Z"
*MEAS_COND_AXIS_NAME_INTERNAL-6 "TwoThetaOmega"
*MEAS_COND_AXIS_NAME_INTERNAL-7 "ThetaS"
*MEAS_COND_AXIS_NAME_INTERNAL-8 "ThetaD"
*MEAS_COND_AXIS_NAME_INTERNAL-9 "Ts"
*MEAS_COND_AXIS_NAME_INTERNAL-10 "CBO"
*MEAS_COND_AXIS_NAME_INTERNAL-11 "CBO-M"
*MEAS_COND_AXIS_NAME_INTERNAL-12 "IncidentSollerSlit"
*MEAS_COND_AXIS_NAME_INTERNAL-13 "IncidentSlitBox"
*MEAS_COND_AXIS_NAME_INTERNAL-14 "IncidentSlitBox-_Axis"
*MEAS_COND_AXIS_NAME_INTERNAL-15 "Zs"
*MEAS_COND_AXIS_NAME_INTERNAL-16 "IncidentMonochromator"
*MEAS_COND_AXIS_NAME_INTERNAL-17 "IncidentMonochromator-OmegaM"
*MEAS_COND_AXIS_NAME_INTERNAL-18 "IncidentAxdSlit"
*MEAS_COND_AXIS_NAME_INTERNAL-19 "CenterSlit"
*MEAS_COND_AXIS_NAME_INTERNAL-20 "Filter"
*MEAS_COND_AXIS_NAME_INTERNAL-21 "ReceivingSlitBox1"
*MEAS_COND_AXIS_NAME_INTERNAL-22 "ReceivingSlitBox2"
*MEAS_COND_AXIS_NAME_INTERNAL-23 "ReceivingOptics"
*MEAS_COND_AXIS_NAME_INTERNAL-24 "ReceivingSollerSlit"
*MEAS_COND_AXIS_NAME_INTERNAL-25 "ReceivingAxdSlit"
*MEAS_COND_AXIS_NAME_INTERNAL-26 "ReceivingSlitBox1-_Axis"
*MEAS_COND_AXIS_NAME_INTERNAL-27 "ReceivingSlitBox2-_Axis"
*MEAS_COND_AXIS_NAME_INTERNAL-28 "ReceivingSlitBox2-Zd"
*MEAS_COND_AXIS_NAME_INTERNAL-29 "Attenuator"
*MEAS_COND_AXIS_NAME_INTERNAL-30 "CounterMonochromator"
*MEAS_COND_AXIS_NAME_INTERNAL-31 "CounterSlit"
*MEAS_COND_AXIS_NAME_INTERNAL-32 "IncidentPrimary"
*MEAS_COND_AXIS_NAME_INTERNAL-33 "AlphaR"
*MEAS_COND_AXIS_NAME_INTERNAL-34 "BetaR"
*MEAS_COND_AXIS_NAME_INTERNAL-35 "PHA"
*MEAS_COND_AXIS_NAME_MAGICNO-0 "83951616.0000000000"
*MEAS_COND_AXIS_NAME_MAGICNO-1 "268632064.0000000000"
*MEAS_COND_AXIS_NAME_MAGICNO-2 "268500992.0000000000"
*MEAS_COND_AXIS_NAME_MAGICNO-3 "268500992.0000000000"
*MEAS_COND_AXIS_NAME_MAGICNO-4 "268500992.0000000000"
*MEAS_COND_AXIS_NAME_MAGICNO-5 "285278208.0000000000"
*MEAS_COND_AXIS_NAME_MAGICNO-6 "83951616.0000000000"
*MEAS_COND_AXIS_NAME_MAGICNO-7 "131072.0000000000"
*MEAS_COND_AXIS_NAME_MAGICNO-8 "131072.0000000000"
*MEAS_COND_AXIS_NAME_MAGICNO-9 "318898176.0000000000"
*MEAS_COND_AXIS_NAME_MAGICNO-10 "20971521.0000000000"
*MEAS_COND_AXIS_NAME_MAGICNO-11 "285343744.0000000000"
*MEAS_COND_AXIS_NAME_MAGICNO-12 "20971521.0000000000"
*MEAS_COND_AXIS_NAME_MAGICNO-13 "22020097.0000000000"
*MEAS_COND_AXIS_NAME_MAGICNO-14 "25165824.0000000000"
*MEAS_COND_AXIS_NAME_MAGICNO-15 "318898176.0000000000"
*MEAS_COND_AXIS_NAME_MAGICNO-16 "20971521.0000000000"
*MEAS_COND_AXIS_NAME_MAGICNO-17 "285343744.0000000000"
*MEAS_COND_AXIS_NAME_MAGICNO-18 "20971521.0000000000"
*MEAS_COND_AXIS_NAME_MAGICNO-19 "20971521.0000000000"
*MEAS_COND_AXIS_NAME_MAGICNO-20 "20971521.0000000000"
*MEAS_COND_AXIS_NAME_MAGICNO-21 "23068673.0000000000"
*MEAS_COND_AXIS_NAME_MAGICNO-22 "23068673.0000000000"
*MEAS_COND_AXIS_NAME_MAGICNO-23 "20971521.0000000000"
*MEAS_COND_AXIS_NAME_MAGICNO-24 "20971521.0000000000"
*MEAS_COND_AXIS_NAME_MAGICNO-25 "20971521.0000000000"
*MEAS_COND_AXIS_NAME_MAGICNO-26 "25165824.0000000000"
*MEAS_COND_AXIS_NAME_MAGICNO-27 "25165824.0000000000"
*MEAS_COND_AXIS_NAME_MAGICNO-28 "285343744.0000000000"
*MEAS_COND_AXIS_NAME_MAGICNO-29 "17301505.0000000000"
*MEAS_COND_AXIS_NAME_MAGICNO-30 "20971521.0000000000"
*MEAS_COND_AXIS_NAME_MAGICNO-31 "20971521.0000000000"
*MEAS_COND_AXIS_NAME_MAGICNO-32 "20971521.0000000000"
*MEAS_COND_AXIS_NAME_MAGICNO-33 "8388608.0000000000"
*MEAS_COND_AXIS_NAME_MAGICNO-34 "8388608.0000000000"
*MEAS_COND_AXIS_NAME_MAGICNO-35 "0.0000000000"
*MEAS_COND_AXIS_OFFSET-0 "-"
*MEAS_COND_AXIS_OFFSET-1 "0.9117000000"
*MEAS_COND_AXIS_OFFSET-2 "0.8116000000"
*MEAS_COND_AXIS_OFFSET-3 "0.0000000000"
*MEAS_COND_AXIS_OFFSET-4 "0.0000000000"
*MEAS_COND_AXIS_OFFSET-5 "-"
*MEAS_COND_AXIS_OFFSET-6 "-"
*MEAS_COND_AXIS_OFFSET-7 "0.8116000000"
*MEAS_COND_AXIS_OFFSET-8 "0.1001000000"
*MEAS_COND_AXIS_OFFSET-9 "-"
*MEAS_COND_AXIS_OFFSET-10 "-"
*MEAS_COND_AXIS_OFFSET-11 "-"
*MEAS_COND_AXIS_OFFSET-12 "-"
*MEAS_COND_AXIS_OFFSET-13 "-"
*MEAS_COND_AXIS_OFFSET-14 "-"
*MEAS_COND_AXIS_OFFSET-15 "-"
*MEAS_COND_AXIS_OFFSET-16 "-"
*MEAS_COND_AXIS_OFFSET-17 "-"
*MEAS_COND_AXIS_OFFSET-18 "-"
*MEAS_COND_AXIS_OFFSET-19 "-"
*MEAS_COND_AXIS_OFFSET-20 "-"
*MEAS_COND_AXIS_OFFSET-21 "-"
*MEAS_COND_AXIS_OFFSET-22 "-"
*MEAS_COND_AXIS_OFFSET-23 "-"
*MEAS_COND_AXIS_OFFSET-24 "-"
*MEAS_COND_AXIS_OFFSET-25 "-"
*MEAS_COND_AXIS_OFFSET-26 "-"
*MEAS_COND_AXIS_OFFSET-27 "-"
*MEAS_COND_AXIS_OFFSET-28 "-"
*MEAS_COND_AXIS_OFFSET-29 "-"
*MEAS_COND_AXIS_OFFSET-30 "-"
*MEAS_COND_AXIS_OFFSET-31 "-"
*MEAS_COND_AXIS_OFFSET-32 "-"
*MEAS_COND_AXIS_OFFSET-33 "0.0000000000"
*MEAS_COND_AXIS_OFFSET-34 "0.0000000000"
*MEAS_COND_AXIS_OFFSET-35 "-"
*MEAS_COND_AXIS_POSITION-0 "-0.0008000000"
*MEAS_COND_AXIS_POSITION-1 "-0.0009000000"
*MEAS_COND_AXIS_POSITION-2 "-0.0004000000"
*MEAS_COND_AXIS_POSITION-3 "0.0000000000"
*MEAS_COND_AXIS_POSITION-4 "0.0000000000"
*MEAS_COND_AXIS_POSITION-5 "-1.4282000000"
*MEAS_COND_AXIS_POSITION-6 "-0.0008000000"
*MEAS_COND_AXIS_POSITION-7 "-0.0004000000"
*MEAS_COND_AXIS_POSITION-8 "-0.0005000000"
*MEAS_COND_AXIS_POSITION-9 "-4.8858800000"
*MEAS_COND_AXIS_POSITION-10 "PB"
*MEAS_COND_AXIS_POSITION-11 "0.0000000000"
*MEAS_COND_AXIS_POSITION-12 "Soller_slit_open_s"
*MEAS_COND_AXIS_POSITION-13 "0.250mm"
*MEAS_COND_AXIS_POSITION-14 "0.2500000000"
*MEAS_COND_AXIS_POSITION-15 "-1.8040600000"
*MEAS_COND_AXIS_POSITION-16 "Ge(220)x2"
*MEAS_COND_AXIS_POSITION-17 "0.0000000000"
*MEAS_COND_AXIS_POSITION-18 "2.0mm"
*MEAS_COND_AXIS_POSITION-19 "None"
*MEAS_COND_AXIS_POSITION-20 "None"
*MEAS_COND_AXIS_POSITION-21 "0.250mm"
*MEAS_COND_AXIS_POSITION-22 "0.250mm"
*MEAS_COND_AXIS_POSITION-23 "No_unit"
*MEAS_COND_AXIS_POSITION-24 "Soller_slit_5.0deg"
*MEAS_COND_AXIS_POSITION-25 "None"
*MEAS_COND_AXIS_POSITION-26 "0.2500000000"
*MEAS_COND_AXIS_POSITION-27 "0.2500000000"
*MEAS_COND_AXIS_POSITION-28 "0.0928100000"
*MEAS_COND_AXIS_POSITION-29 "1/10000"
*MEAS_COND_AXIS_POSITION-30 "None"
*MEAS_COND_AXIS_POSITION-31 "None"
*MEAS_COND_AXIS_POSITION-32 "None"
*MEAS_COND_AXIS_POSITION-33 "0.0000000000"
*MEAS_COND_AXIS_POSITION-34 "0.0000000000"
*MEAS_COND_AXIS_POSITION-35 "34.0000000000"
*MEAS_COND_AXIS_UNIT-0 "deg"
*MEAS_COND_AXIS_UNIT-1 "deg"
*MEAS_COND_AXIS_UNIT-2 "deg"
*MEAS_COND_AXIS_UNIT-3 "deg"
*MEAS_COND_AXIS_UNIT-4 "deg"
*MEAS_COND_AXIS_UNIT-5 "mm"
*MEAS_COND_AXIS_UNIT-6 "deg"
*MEAS_COND_AXIS_UNIT-7 "deg"
*MEAS_COND_AXIS_UNIT-8 "deg"
*MEAS_COND_AXIS_UNIT-9 "mm"
*MEAS_COND_AXIS_UNIT-10 ""
*MEAS_COND_AXIS_UNIT-11 "pulse"
*MEAS_COND_AXIS_UNIT-12 ""
*MEAS_COND_AXIS_UNIT-13 ""
*MEAS_COND_AXIS_UNIT-14 "mm"
*MEAS_COND_AXIS_UNIT-15 "mm"
*MEAS_COND_AXIS_UNIT-16 ""
*MEAS_COND_AXIS_UNIT-17 "pulse"
*MEAS_COND_AXIS_UNIT-18 ""
*MEAS_COND_AXIS_UNIT-19 ""
*MEAS_COND_AXIS_UNIT-20 ""
*MEAS_COND_AXIS_UNIT-21 ""
*MEAS_COND_AXIS_UNIT-22 ""
*MEAS_COND_AXIS_UNIT-23 ""
*MEAS_COND_AXIS_UNIT-24 ""
*MEAS_COND_AXIS_UNIT-25 ""
*MEAS_COND_AXIS_UNIT-26 "mm"
*MEAS_COND_AXIS_UNIT-27 "mm"
*MEAS_COND_AXIS_UNIT-28 "mm"
*MEAS_COND_AXIS_UNIT-29 ""
*MEAS_COND_AXIS_UNIT-30 ""
*MEAS_COND_AXIS_UNIT-31 ""
*MEAS_COND_AXIS_UNIT-32 ""
*MEAS_COND_AXIS_UNIT-33 "deg"
*MEAS_COND_AXIS_UNIT-34 "deg"
*MEAS_COND_AXIS_UNIT-35 "div"
*MEAS_COND_COUNTER_CNTLOSS_CORR "0.0000000000"
*MEAS_COND_COUNTER_PHABASE "34.0000000000"
*MEAS_COND_COUNTER_PHAWINDOW "19.0000000000"
*MEAS_COND_COUNTER_PHA_UNIT "div"
*MEAS_COND_COUNTER_TAUDIFF "2.0000000000"
*MEAS_COND_COUNTER_TAUINT "0.1000000000"
*MEAS_COND_IRRADIATION_MODE "OFF"
*MEAS_COND_IRRADIATION_WIDTH ""
*MEAS_COND_OPT_ATTR "High resolution parallel beam Ge(220)x2/RS"
*MEAS_COND_OPT_NAME "@High resolution PB-Ge(220)x2"
*MEAS_COND_UNSYMMETRIC_MODE "OFF"
*MEAS_COND_XG_CURRENT "200.0000000000"
*MEAS_COND_XG_VOLTAGE "45.0000000000"
*MEAS_COND_XG_WAVE_TYPE "Ka1"
*MEAS_DATA_COUNT "3001.0000000000"
*MEAS_SCAN_AXIS_X "2-Theta/Omega"
*MEAS_SCAN_AXIS_X_INTERNAL "TwoThetaOmega"
*MEAS_SCAN_END_TIME "11/07/23 13:38:51"
*MEAS_SCAN_MODE "CONTINUOUS"
*MEAS_SCAN_MONITOR "0"
*MEAS_SCAN_RESOLUTION_X "0.0002"
*MEAS_SCAN_SPEED "0.500000"
*MEAS_SCAN_SPEED_UNIT "deg/min"
*MEAS_SCAN_SPEED_USER "0.500000"
*MEAS_SCAN_START "0.0000000000"
*MEAS_SCAN_START_TIME "11/07/23 13:26:21"
*MEAS_SCAN_STEP "0.0020000000"
*MEAS_SCAN_STOP "6.0000000000"
*MEAS_SCAN_UNIT_X "deg"
*MEAS_SCAN_UNIT_Y "counts"
*RAS_HEADER_END
*RAS_INT_START
0.0000 5331002.5000 1.0000
0.0020 5419409.0000 1.0000
0.0040 5442027.5000 1.0000
0.0060 5505470.5000 1.0000
0.0080 5491127.0000 1.0000
0.0100 5510435.5000 1.0000
0.0120 5570155.0000 1.0000
0.0140 5413892.0000 1.0000
0.0160 5350725.0000 1.0000
0.0180 5447544.5000 1.0000
0.0200 5391687.0000 1.0000
0.0220 5327416.5000 1.0000
0.0240 5331002.5000 1.0000
0.0260 5234045.0000 1.0000
0.0280 5109641.5000 1.0000
0.0300 4973377.0000 1.0000
0.0320 4796978.0000 1.0000
0.0340 4575617.5000 1.0000
0.0360 4424733.5000 1.0000
0.0380 4129861.5000 1.0000
0.0400 3771960.5000 1.0000
0.0420 3561357.2500 1.0000
0.0440 3186905.7500 1.0000
0.0460 2752597.2500 1.0000
0.0480 2532340.0000 1.0000
0.0500 2213608.0000 1.0000
0.0520 1883152.8750 1.0000
0.0540 1617795.7500 1.0000
0.0560 1373954.0000 1.0000
0.0580 1119636.7500 1.0000
0.0600 911004.6875 1.0000
0.0620 737904.8750 1.0000
0.0640 601112.6250 1.0000
0.0660 478322.1250 1.0000
0.0680 373227.4375 1.0000
0.0700 292144.1250 1.0000
0.0720 238274.7969 1.0000
0.0740 204134.4688 1.0000
0.0760 172973.2188 1.0000
0.0780 151255.6719 1.0000
0.0800 138899.9219 1.0000
0.0820 122872.4297 1.0000
0.0840 113525.5391 1.0000
0.0860 103776.4844 1.0000
0.0880 102421.0000 1.0000
0.0900 95785.0859 1.0000
0.0920 93684.8281 1.0000
0.0940 91219.6328 1.0000
0.0960 88106.4844 1.0000
0.0980 90579.1328 1.0000
0.1000 91405.8281 1.0000
0.1020 87376.6094 1.0000
0.1040 93982.7344 1.0000
0.1060 97885.3438 1.0000
0.1080 97170.3594 1.0000
0.1100 98622.6641 1.0000
0.1120 94645.5859 1.0000
0.1140 99881.3281 1.0000
0.1160 103150.8750 1.0000
0.1180 101773.0469 1.0000
0.1200 99806.8516 1.0000
0.1220 101907.1094 1.0000
0.1240 103821.1719 1.0000
0.1260 109347.3750 1.0000
0.1280 107679.0859 1.0000
0.1300 109801.6875 1.0000
0.1320 111916.8359 1.0000
0.1340 113853.2422 1.0000
0.1360 117748.4063 1.0000
0.1380 115394.9219 1.0000
0.1400 120302.9688 1.0000
0.1420 121516.9453 1.0000
0.1440 118597.4453 1.0000
0.1460 119141.1250 1.0000
0.1480 127542.1484 1.0000
0.1500 126931.4375 1.0000
0.1520 130543.5781 1.0000
0.1540 127966.6641 1.0000
0.1560 135131.3750 1.0000
0.1580 133314.1250 1.0000
0.1600 136643.2656 1.0000
0.1620 133969.5313 1.0000
0.1640 137551.8750 1.0000
0.1660 142154.5781 1.0000
0.1680 142757.8281 1.0000
0.1700 140255.4063 1.0000
0.1720 141335.3125 1.0000
0.1740 145789.0625 1.0000
0.1760 148254.2500 1.0000
0.1780 147204.1250 1.0000
0.1800 147621.1875 1.0000
0.1820 156104.1406 1.0000
0.1840 156342.4688 1.0000
0.1860 154056.0156 1.0000
0.1880 157913.9375 1.0000
0.1900 157906.4844 1.0000
0.1920 159284.3125 1.0000
0.1940 160840.8906 1.0000
0.1960 164996.7188 1.0000
0.1980 160997.2969 1.0000
0.2000 166694.7969 1.0000
0.2020 169025.9219 1.0000
0.2040 164989.2656 1.0000
0.2060 169554.7188 1.0000
0.2080 170269.7031 1.0000
0.2100 170195.2188 1.0000
0.2120 177337.5781 1.0000
0.2140 176704.5313 1.0000
0.2160 175661.8438 1.0000
0.2180 180562.4375 1.0000
0.2200 179601.6875 1.0000
0.2220 181672.1563 1.0000
0.2240 185396.0156 1.0000
0.2260 184494.8438 1.0000
0.2280 182320.1094 1.0000
0.2300 186647.2344 1.0000
0.2320 190780.7188 1.0000
0.2340 189939.1250 1.0000
0.2360 190616.8594 1.0000
0.2380 189320.9531 1.0000
0.2400 198116.7031 1.0000
0.2420 200522.3281 1.0000
0.2440 191451.0000 1.0000
0.2460 200730.8594 1.0000
0.2480 199844.5781 1.0000
0.2500 200678.7188 1.0000
0.2520 204253.6250 1.0000
0.2540 206554.9688 1.0000
0.2560 212312.0625 1.0000
0.2580 209295.7344 1.0000
0.2600 213071.7344 1.0000
0.2620 214188.8906 1.0000
0.2640 212274.8125 1.0000
0.2660 217890.3906 1.0000
0.2680 217949.9844 1.0000
0.2700 210695.9063 1.0000
0.2720 218456.4219 1.0000
0.2740 222455.8438 1.0000
0.2760 219096.9219 1.0000
0.2780 220876.9375 1.0000
0.2800 224392.2656 1.0000
0.2820 222679.2813 1.0000
0.2840 229456.7031 1.0000
0.2860 229009.8281 1.0000
0.2880 225896.7031 1.0000
0.2900 230603.6563 1.0000
0.2920 228689.5781 1.0000
0.2940 236137.2969 1.0000
0.2960 234670.1094 1.0000
0.2980 242631.7188 1.0000
0.3000 240084.5938 1.0000
0.3020 247122.6875 1.0000
0.3040 242028.4531 1.0000
0.3060 245886.3594 1.0000
0.3080 241745.4375 1.0000
0.3100 249126.1250 1.0000
0.3120 242646.6094 1.0000
0.3140 244568.1250 1.0000
0.3160 247465.2813 1.0000
0.3180 250883.7813 1.0000
0.3200 253766.0469 1.0000
0.3220 253006.3906 1.0000
0.3240 255918.4375 1.0000
0.3260 255814.1719 1.0000
0.3280 258182.5469 1.0000
0.3300 262777.7813 1.0000
0.3320 265027.0000 1.0000
0.3340 263358.6875 1.0000
0.3360 260163.6406 1.0000
0.3380 263559.7813 1.0000
0.3400 263209.7500 1.0000
0.3420 269324.3125 1.0000
0.3440 272288.5313 1.0000
0.3460 271141.5625 1.0000
0.3480 276086.8438 1.0000
0.3500 271513.9688 1.0000
0.3520 272906.6875 1.0000
0.3540 277129.5313 1.0000
0.3560 272459.8125 1.0000
0.3580 276965.6875 1.0000
0.3600 280756.5938 1.0000
0.3620 285575.2500 1.0000
0.3640 280697.0000 1.0000
0.3660 284681.5313 1.0000
0.3680 284554.9063 1.0000
0.3700 290237.5000 1.0000
0.3720 289529.9688 1.0000
0.3740 288196.8438 1.0000
0.3760 290654.5938 1.0000
0.3780 295398.7813 1.0000
0.3800 295495.5938 1.0000
0.3820 301356.9375 1.0000
0.3840 299107.7500 1.0000
0.3860 302220.8750 1.0000
0.3880 293216.5938 1.0000
0.3900 302556.0313 1.0000
0.3920 300277.0313 1.0000
0.3940 302101.7500 1.0000
0.3960 309497.3125 1.0000
0.3980 304403.0625 1.0000
0.4000 315306.5313 1.0000
0.4020 312118.9063 1.0000
0.4040 308283.3438 1.0000
0.4060 304216.8750 1.0000
0.4080 311984.8438 1.0000
0.4100 315016.0938 1.0000
0.4120 316222.5938 1.0000
0.4140 322471.2500 1.0000
0.4160 314018.0625 1.0000
0.4180 317406.7813 1.0000
0.4200 314487.2813 1.0000
0.4220 315634.2188 1.0000
0.4240 323119.1875 1.0000
0.4260 315842.7813 1.0000
0.4280 324407.6563 1.0000
0.4300 327059.0313 1.0000
0.4320 326515.3438 1.0000
0.4340 328273.0000 1.0000
0.4360 330738.1875 1.0000
0.4380 330507.3125 1.0000
0.4400 329918.9688 1.0000
0.4420 332883.1563 1.0000
0.4440 332205.4063 1.0000
0.4460 331192.5313 1.0000
0.4480 335378.1250 1.0000
0.4500 336100.5625 1.0000
0.4520 338297.6250 1.0000
0.4540 337344.3438 1.0000
0.4560 345745.3438 1.0000
0.4580 336450.5938 1.0000
0.4600 341827.8438 1.0000
0.4620 349551.1250 1.0000
0.4640 331870.2500 1.0000
0.4660 341388.4375 1.0000
0.4680 340256.3750 1.0000
0.4700 344888.8750 1.0000
0.4720 349052.1563 1.0000
0.4740 347093.3750 1.0000
0.4760 349983.0938 1.0000
0.4780 353729.3125 1.0000
0.4800 353185.6250 1.0000
0.4820 352999.4375 1.0000
0.4840 356313.6563 1.0000
0.4860 358339.4375 1.0000
0.4880 355203.9688 1.0000
0.4900 358749.0625 1.0000
0.4920 362986.8125 1.0000
0.4940 365057.2813 1.0000
0.4960 360313.0938 1.0000
0.4980 358339.4375 1.0000
0.5000 364319.9688 1.0000
0.5020 362078.1875 1.0000
0.5040 374232.8750 1.0000
0.5060 361743.0313 1.0000
0.5080 362368.6563 1.0000
0.5100 369086.5000 1.0000
0.5120 372832.6875 1.0000
0.5140 362927.2500 1.0000
0.5160 367105.4063 1.0000
0.5180 367016.0313 1.0000
0.5200 370389.8438 1.0000
0.5220 374225.4063 1.0000
0.5240 370285.5625 1.0000
0.5260 366651.0938 1.0000
0.5280 379006.8438 1.0000
0.5300 374136.0313 1.0000
