*RAS_DATA_START
*RAS_HEADER_START
*DISP_FMT_X "%.4f"
*DISP_FMT_Y "%.0f"
*DISP_FULLSCALE "26908094.4499999990"
*DISP_LINE_COLOR "255.0000000000"
*DISP_LINE_STYLE "0.0000000000"
*DISP_LINE_WIDTH "0.2500000000"
*DISP_NOTE "Collected Data-49"
*DISP_OFFSET_Y "0.0000000000"
*DISP_PEAKSEARCH_UNIT_Y "cps"
*DISP_RANGE_BOTTOM "0.0100000000"
*DISP_RANGE_LEFT "-0.0006000000"
*DISP_RANGE_LOGCUTOFF "0.0100000000"
*DISP_RANGE_RIGHT "6.0006000000"
*DISP_RANGE_TOP "26908094.4499999990"
*DISP_SCALE_MODE_Y "2.0000000000"
*DISP_TAB_NAME "2-Theta/Omega"
*DISP_TITLE_Y "Intensity"
*DISP_UNIT_Y "cps"
*DISP_WINDOW_NAME "MSG_MACROENGINE"
*FILE_COMMENT " "
*FILE_MD5 ""
*FILE_MEMO " "
*FILE_OPERATOR "administrator"
*FILE_PART_ID "MEAS_KHP2_00055"
*FILE_SAMPLE "CWO 016"
*FILE_TYPE "RAS_RAW"
*FILE_USERGROUP "System Manager"
*FILE_VERSION "1.0000000000"
*HW_ATTACHMENT_ID "ATT0025"
*HW_ATTACHMENT_NAME "標準|Standard"
*HW_COUNTER_ID-0 "CUT0025"
*HW_COUNTER_ID-1 "CUT0020"
*HW_COUNTER_ID-2 "CUT0020"
*HW_COUNTER_ID-3 "CSL0021"
*HW_COUNTER_ID-4 "CMC0021"
*HW_COUNTER_NAME-0 "D/teX Ultra|D/teX Ultra"
*HW_COUNTER_NAME-1 "None|None"
*HW_COUNTER_NAME-2 "None|None"
*HW_COUNTER_NAME-3 "BBM|BBM"
*HW_COUNTER_NAME-4 "検出器モノクロメータ|Detector monochromator"
*HW_COUNTER_SELECT_NAME "D/teX Ultra|D/teX Ultra"
*HW_GONIOMETER_ID "GON0023"
*HW_GONIOMETER_NAME "SmartLab|SmartLab"
*HW_GONIOMETER_RADIUS-0 "90.0"
*HW_GONIOMETER_RADIUS-1 "114.0"
*HW_GONIOMETER_RADIUS-2 "190.0"
*HW_GONIOMETER_RADIUS-3 "300.0"
*HW_GONIOMETER_RADIUS-4 "187.0"
*HW_GONIOMETER_RADIUS-5 "300.0"
*HW_GONIOMETER_RADIUS-6 "113.0"
*HW_GONIOMETER_RADIUS-7 "331.0"
*HW_I_OPT_ID-0 "CBO0021"
*HW_I_OPT_ID-1 "ICR0021"
*HW_I_OPT_ID-2 "ISL0021"
*HW_I_OPT_ID-3 "ISO0021"
*HW_I_OPT_ID-4 "IAD0021"
*HW_I_OPT_ID-5 "IPR0001"
*HW_I_OPT_NAME-0 "CBOユニット|CBO unit"
*HW_I_OPT_NAME-1 "標準入射光学ユニット|Standard incident optical unit"
*HW_I_OPT_NAME-2 "標準入射スリットボックス|Standard incident slit box"
*HW_I_OPT_NAME-3 "入射平行スリット|Incident parallel slit"
*HW_I_OPT_NAME-4 "長手制限スリット|Length limiting slit"
*HW_I_OPT_NAME-5 "None|None"
*HW_R_ATTENUATER_AUTOMODE "1"
*HW_R_OPT_ID-0 "RSS0021"
*HW_R_OPT_ID-1 "RCR0023"
*HW_R_OPT_ID-2 "RSO0021"
*HW_R_OPT_ID-3 "RRS0021"
*HW_R_OPT_ID-4 "ATN0021"
*HW_R_OPT_ID-5 "RFL0021"
*HW_R_OPT_ID-6 "RAD0021"
*HW_R_OPT_NAME-0 "標準受光スリットボックス1|Standard receiving slit box # 1"
*HW_R_OPT_NAME-1 "標準受光光学ユニット1|Standard receiving unit # 1"
*HW_R_OPT_NAME-2 "標準受光光学ユニット2|Standard receiving optical unit # 2"
*HW_R_OPT_NAME-3 "標準受光スリットボックス2|Standard receiving slit box # 2"
*HW_R_OPT_NAME-4 "標準アッテネータ|Standard Attenuator"
*HW_R_OPT_NAME-5 "Cu Kβ|Cu K-beta"
*HW_R_OPT_NAME-6 "調整用受光スリット|Alignment receiving slit"
*HW_SAMPLE_HOLDER_ID "SMP0021"
*HW_SAMPLE_HOLDER_NAME "χφZクレードル|Chi phi Z cradle"
*HW_XG_CURRENT_MAX "200"
*HW_XG_CURRENT_MIN "10"
*HW_XG_CURRENT_RESOLUTION "1"
*HW_XG_CURRENT_UNIT "mA"
*HW_XG_FOCUS "0.4mm x 8mm"
*HW_XG_FOCUS_TYPE "Normal"
*HW_XG_ID "1700"
*HW_XG_NAME "9kW 開放管(45kV 200mA ID:1700)|9kW Rotating anode(45kV 200mA ID:1700)"
*HW_XG_TARGET_ATOMIC_NUMBER "29.0000000000"
*HW_XG_TARGET_NAME "Cu"
*HW_XG_TYPE "Rota"
*HW_XG_VOLTAGE_MAX "45"
*HW_XG_VOLTAGE_MIN "20"
*HW_XG_VOLTAGE_RESOLUTION "1"
*HW_XG_VOLTAGE_UNIT "kV"
*HW_XG_WATT_MAX "9.00"
*HW_XG_WATT_UNIT "kW"
*HW_XG_WAVE_LENGTH_ALPHA1 "1.540593"
*HW_XG_WAVE_LENGTH_ALPHA2 "1.544414"
*HW_XG_WAVE_LENGTH_BETA "1.392250"
*MEAS_COND_AXIS_NAME-0 "Theta/2-Theta"
*MEAS_COND_AXIS_NAME-1 "2-Theta"
*MEAS_COND_AXIS_NAME-2 "Omega"
*MEAS_COND_AXIS_NAME-3 "Chi"
*MEAS_COND_AXIS_NAME-4 "Phi"
*MEAS_COND_AXIS_NAME-5 "Z"
*MEAS_COND_AXIS_NAME-6 "2-Theta/Omega"
*MEAS_COND_AXIS_NAME-7 "Theta_s"
*MEAS_COND_AXIS_NAME-8 "Theta_d"
*MEAS_COND_AXIS_NAME-9 "Ts"
*MEAS_COND_AXIS_NAME-10 "CBO selection slit"
*MEAS_COND_AXIS_NAME-11 "M"
*MEAS_COND_AXIS_NAME-12 "Incident parallel slit"
*MEAS_COND_AXIS_NAME-13 "Incident slit"
*MEAS_COND_AXIS_NAME-14 ""
*MEAS_COND_AXIS_NAME-15 "Zs"
*MEAS_COND_AXIS_NAME-16 "Incident optical device"
*MEAS_COND_AXIS_NAME-17 "Omega_m"
*MEAS_COND_AXIS_NAME-18 "Length limiting slit"
*MEAS_COND_AXIS_NAME-19 "Center slit"
*MEAS_COND_AXIS_NAME-20 "Filter"
*MEAS_COND_AXIS_NAME-21 "Receiving slit # 1"
*MEAS_COND_AXIS_NAME-22 "Receiving slit # 2"
*MEAS_COND_AXIS_NAME-23 "Receiving optical device"
*MEAS_COND_AXIS_NAME-24 "Receiving parallel slit"
*MEAS_COND_AXIS_NAME-25 "Alignment receiving slit"
*MEAS_COND_AXIS_NAME-26 ""
*MEAS_COND_AXIS_NAME-27 ""
*MEAS_COND_AXIS_NAME-28 "Zd"
*MEAS_COND_AXIS_NAME-29 "Attenuator"
*MEAS_COND_AXIS_NAME-30 "Diffracted beam monochromator"
*MEAS_COND_AXIS_NAME-31 "Monochromator slit"
*MEAS_COND_AXIS_NAME-32 "Primary beam"
*MEAS_COND_AXIS_NAME-33 ""
*MEAS_COND_AXIS_NAME-34 ""
*MEAS_COND_AXIS_NAME-35 "PHA"
*MEAS_COND_AXIS_NAME_INTERNAL-0 "TwoThetaTheta"
*MEAS_COND_AXIS_NAME_INTERNAL-1 "TwoTheta"
*MEAS_COND_AXIS_NAME_INTERNAL-2 "Omega"
*MEAS_COND_AXIS_NAME_INTERNAL-3 "Chi"
*MEAS_COND_AXIS_NAME_INTERNAL-4 "Phi"
*MEAS_COND_AXIS_NAME_INTERNAL-5 "Z"
*MEAS_COND_AXIS_NAME_INTERNAL-6 "TwoThetaOmega"
*MEAS_COND_AXIS_NAME_INTERNAL-7 "ThetaS"
*MEAS_COND_AXIS_NAME_INTERNAL-8 "ThetaD"
*MEAS_COND_AXIS_NAME_INTERNAL-9 "Ts"
*MEAS_COND_AXIS_NAME_INTERNAL-10 "CBO"
*MEAS_COND_AXIS_NAME_INTERNAL-11 "CBO-M"
*MEAS_COND_AXIS_NAME_INTERNAL-12 "IncidentSollerSlit"
*MEAS_COND_AXIS_NAME_INTERNAL-13 "IncidentSlitBox"
*MEAS_COND_AXIS_NAME_INTERNAL-14 "IncidentSlitBox-_Axis"
*MEAS_COND_AXIS_NAME_INTERNAL-15 "Zs"
*MEAS_COND_AXIS_NAME_INTERNAL-16 "IncidentMonochromator"
*MEAS_COND_AXIS_NAME_INTERNAL-17 "IncidentMonochromator-OmegaM"
*MEAS_COND_AXIS_NAME_INTERNAL-18 "IncidentAxdSlit"
*MEAS_COND_AXIS_NAME_INTERNAL-19 "CenterSlit"
*MEAS_COND_AXIS_NAME_INTERNAL-20 "Filter"
*MEAS_COND_AXIS_NAME_INTERNAL-21 "ReceivingSlitBox1"
*MEAS_COND_AXIS_NAME_INTERNAL-22 "ReceivingSlitBox2"
*MEAS_COND_AXIS_NAME_INTERNAL-23 "ReceivingOptics"
*MEAS_COND_AXIS_NAME_INTERNAL-24 "ReceivingSollerSlit"
*MEAS_COND_AXIS_NAME_INTERNAL-25 "ReceivingAxdSlit"
*MEAS_COND_AXIS_NAME_INTERNAL-26 "ReceivingSlitBox1-_Axis"
*MEAS_COND_AXIS_NAME_INTERNAL-27 "ReceivingSlitBox2-_Axis"
*MEAS_COND_AXIS_NAME_INTERNAL-28 "ReceivingSlitBox2-Zd"
*MEAS_COND_AXIS_NAME_INTERNAL-29 "Attenuator"
*MEAS_COND_AXIS_NAME_INTERNAL-30 "CounterMonochromator"
*MEAS_COND_AXIS_NAME_INTERNAL-31 "CounterSlit"
*MEAS_COND_AXIS_NAME_INTERNAL-32 "IncidentPrimary"
*MEAS_COND_AXIS_NAME_INTERNAL-33 "AlphaR"
*MEAS_COND_AXIS_NAME_INTERNAL-34 "BetaR"
*MEAS_COND_AXIS_NAME_INTERNAL-35 "PHA"
*MEAS_COND_AXIS_NAME_MAGICNO-0 "83951616.0000000000"
*MEAS_COND_AXIS_NAME_MAGICNO-1 "268632064.0000000000"
*MEAS_COND_AXIS_NAME_MAGICNO-2 "268500992.0000000000"
*MEAS_COND_AXIS_NAME_MAGICNO-3 "268500992.0000000000"
*MEAS_COND_AXIS_NAME_MAGICNO-4 "268500992.0000000000"
*MEAS_COND_AXIS_NAME_MAGICNO-5 "285278208.0000000000"
*MEAS_COND_AXIS_NAME_MAGICNO-6 "83951616.0000000000"
*MEAS_COND_AXIS_NAME_MAGICNO-7 "131072.0000000000"
*MEAS_COND_AXIS_NAME_MAGICNO-8 "131072.0000000000"
*MEAS_COND_AXIS_NAME_MAGICNO-9 "318898176.0000000000"
*MEAS_COND_AXIS_NAME_MAGICNO-10 "20971521.0000000000"
*MEAS_COND_AXIS_NAME_MAGICNO-11 "285343744.0000000000"
*MEAS_COND_AXIS_NAME_MAGICNO-12 "20971521.0000000000"
*MEAS_COND_AXIS_NAME_MAGICNO-13 "22020097.0000000000"
*MEAS_COND_AXIS_NAME_MAGICNO-14 "25165824.0000000000"
*MEAS_COND_AXIS_NAME_MAGICNO-15 "318898176.0000000000"
*MEAS_COND_AXIS_NAME_MAGICNO-16 "20971521.0000000000"
*MEAS_COND_AXIS_NAME_MAGICNO-17 "285343744.0000000000"
*MEAS_COND_AXIS_NAME_MAGICNO-18 "20971521.0000000000"
*MEAS_COND_AXIS_NAME_MAGICNO-19 "20971521.0000000000"
*MEAS_COND_AXIS_NAME_MAGICNO-20 "20971521.0000000000"
*MEAS_COND_AXIS_NAME_MAGICNO-21 "23068673.0000000000"
*MEAS_COND_AXIS_NAME_MAGICNO-22 "23068673.0000000000"
*MEAS_COND_AXIS_NAME_MAGICNO-23 "20971521.0000000000"
*MEAS_COND_AXIS_NAME_MAGICNO-24 "20971521.0000000000"
*MEAS_COND_AXIS_NAME_MAGICNO-25 "20971521.0000000000"
*MEAS_COND_AXIS_NAME_MAGICNO-26 "25165824.0000000000"
*MEAS_COND_AXIS_NAME_MAGICNO-27 "25165824.0000000000"
*MEAS_COND_AXIS_NAME_MAGICNO-28 "285343744.0000000000"
*MEAS_COND_AXIS_NAME_MAGICNO-29 "17301505.0000000000"
*MEAS_COND_AXIS_NAME_MAGICNO-30 "20971521.0000000000"
*MEAS_COND_AXIS_NAME_MAGICNO-31 "20971521.0000000000"
*MEAS_COND_AXIS_NAME_MAGICNO-32 "20971521.0000000000"
*MEAS_COND_AXIS_NAME_MAGICNO-33 "8388608.0000000000"
*MEAS_COND_AXIS_NAME_MAGICNO-34 "8388608.0000000000"
*MEAS_COND_AXIS_NAME_MAGICNO-35 "0.0000000000"
*MEAS_COND_AXIS_OFFSET-0 "-"
*MEAS_COND_AXIS_OFFSET-1 "0.8920000000"
*MEAS_COND_AXIS_OFFSET-2 "1.7652000000"
*MEAS_COND_AXIS_OFFSET-3 "0.0000000000"
*MEAS_COND_AXIS_OFFSET-4 "0.0000000000"
*MEAS_COND_AXIS_OFFSET-5 "-"
*MEAS_COND_AXIS_OFFSET-6 "-"
*MEAS_COND_AXIS_OFFSET-7 "1.7652000000"
*MEAS_COND_AXIS_OFFSET-8 "-0.8732000000"
*MEAS_COND_AXIS_OFFSET-9 "-"
*MEAS_COND_AXIS_OFFSET-10 "-"
*MEAS_COND_AXIS_OFFSET-11 "-"
*MEAS_COND_AXIS_OFFSET-12 "-"
*MEAS_COND_AXIS_OFFSET-13 "-"
*MEAS_COND_AXIS_OFFSET-14 "-"
*MEAS_COND_AXIS_OFFSET-15 "-"
*MEAS_COND_AXIS_OFFSET-16 "-"
*MEAS_COND_AXIS_OFFSET-17 "-"
*MEAS_COND_AXIS_OFFSET-18 "-"
*MEAS_COND_AXIS_OFFSET-19 "-"
*MEAS_COND_AXIS_OFFSET-20 "-"
*MEAS_COND_AXIS_OFFSET-21 "-"
*MEAS_COND_AXIS_OFFSET-22 "-"
*MEAS_COND_AXIS_OFFSET-23 "-"
*MEAS_COND_AXIS_OFFSET-24 "-"
*MEAS_COND_AXIS_OFFSET-25 "-"
*MEAS_COND_AXIS_OFFSET-26 "-"
*MEAS_COND_AXIS_OFFSET-27 "-"
*MEAS_COND_AXIS_OFFSET-28 "-"
*MEAS_COND_AXIS_OFFSET-29 "-"
*MEAS_COND_AXIS_OFFSET-30 "-"
*MEAS_COND_AXIS_OFFSET-31 "-"
*MEAS_COND_AXIS_OFFSET-32 "-"
*MEAS_COND_AXIS_OFFSET-33 "0.0000000000"
*MEAS_COND_AXIS_OFFSET-34 "0.0000000000"
*MEAS_COND_AXIS_OFFSET-35 "-"
*MEAS_COND_AXIS_POSITION-0 "-0.0008000000"
*MEAS_COND_AXIS_POSITION-1 "-0.0008000000"
*MEAS_COND_AXIS_POSITION-2 "-0.0004000000"
*MEAS_COND_AXIS_POSITION-3 "0.0000000000"
*MEAS_COND_AXIS_POSITION-4 "0.0000000000"
*MEAS_COND_AXIS_POSITION-5 "-2.0226000000"
*MEAS_COND_AXIS_POSITION-6 "-0.0008000000"
*MEAS_COND_AXIS_POSITION-7 "-0.0004000000"
*MEAS_COND_AXIS_POSITION-8 "-0.0004000000"
*MEAS_COND_AXIS_POSITION-9 "-4.7599400000"
*MEAS_COND_AXIS_POSITION-10 "PB"
*MEAS_COND_AXIS_POSITION-11 "0.0000000000"
*MEAS_COND_AXIS_POSITION-12 "Soller_slit_open_s"
*MEAS_COND_AXIS_POSITION-13 "0.250mm"
*MEAS_COND_AXIS_POSITION-14 "0.2500000000"
*MEAS_COND_AXIS_POSITION-15 "-0.8975000000"
*MEAS_COND_AXIS_POSITION-16 "Ge(220)x2"
*MEAS_COND_AXIS_POSITION-17 "0.0000000000"
*MEAS_COND_AXIS_POSITION-18 "2.0mm"
*MEAS_COND_AXIS_POSITION-19 "None"
*MEAS_COND_AXIS_POSITION-20 "None"
*MEAS_COND_AXIS_POSITION-21 "0.250mm"
*MEAS_COND_AXIS_POSITION-22 "0.250mm"
*MEAS_COND_AXIS_POSITION-23 "No_unit"
*MEAS_COND_AXIS_POSITION-24 "Soller_slit_5.0deg"
*MEAS_COND_AXIS_POSITION-25 "None"
*MEAS_COND_AXIS_POSITION-26 "0.2500000000"
*MEAS_COND_AXIS_POSITION-27 "0.2500000000"
*MEAS_COND_AXIS_POSITION-28 "0.0915600000"
*MEAS_COND_AXIS_POSITION-29 "1/10000"
*MEAS_COND_AXIS_POSITION-30 "None"
*MEAS_COND_AXIS_POSITION-31 "None"
*MEAS_COND_AXIS_POSITION-32 "None"
*MEAS_COND_AXIS_POSITION-33 "0.0000000000"
*MEAS_COND_AXIS_POSITION-34 "43.1000000000"
*MEAS_COND_AXIS_POSITION-35 "34.0000000000"
*MEAS_COND_AXIS_UNIT-0 "deg"
*MEAS_COND_AXIS_UNIT-1 "deg"
*MEAS_COND_AXIS_UNIT-2 "deg"
*MEAS_COND_AXIS_UNIT-3 "deg"
*MEAS_COND_AXIS_UNIT-4 "deg"
*MEAS_COND_AXIS_UNIT-5 "mm"
*MEAS_COND_AXIS_UNIT-6 "deg"
*MEAS_COND_AXIS_UNIT-7 "deg"
*MEAS_COND_AXIS_UNIT-8 "deg"
*MEAS_COND_AXIS_UNIT-9 "mm"
*MEAS_COND_AXIS_UNIT-10 ""
*MEAS_COND_AXIS_UNIT-11 "pulse"
*MEAS_COND_AXIS_UNIT-12 ""
*MEAS_COND_AXIS_UNIT-13 ""
*MEAS_COND_AXIS_UNIT-14 "mm"
*MEAS_COND_AXIS_UNIT-15 "mm"
*MEAS_COND_AXIS_UNIT-16 ""
*MEAS_COND_AXIS_UNIT-17 "pulse"
*MEAS_COND_AXIS_UNIT-18 ""
*MEAS_COND_AXIS_UNIT-19 ""
*MEAS_COND_AXIS_UNIT-20 ""
*MEAS_COND_AXIS_UNIT-21 ""
*MEAS_COND_AXIS_UNIT-22 ""
*MEAS_COND_AXIS_UNIT-23 ""
*MEAS_COND_AXIS_UNIT-24 ""
*MEAS_COND_AXIS_UNIT-25 ""
*MEAS_COND_AXIS_UNIT-26 "mm"
*MEAS_COND_AXIS_UNIT-27 "mm"
*MEAS_COND_AXIS_UNIT-28 "mm"
*MEAS_COND_AXIS_UNIT-29 ""
*MEAS_COND_AXIS_UNIT-30 ""
*MEAS_COND_AXIS_UNIT-31 ""
*MEAS_COND_AXIS_UNIT-32 ""
*MEAS_COND_AXIS_UNIT-33 "deg"
*MEAS_COND_AXIS_UNIT-34 "deg"
*MEAS_COND_AXIS_UNIT-35 "div"
*MEAS_COND_COUNTER_CNTLOSS_CORR "0.0000000000"
*MEAS_COND_COUNTER_PHABASE "34.0000000000"
*MEAS_COND_COUNTER_PHAWINDOW "19.0000000000"
*MEAS_COND_COUNTER_PHA_UNIT "div"
*MEAS_COND_COUNTER_TAUDIFF "2.0000000000"
*MEAS_COND_COUNTER_TAUINT "0.1000000000"
*MEAS_COND_IRRADIATION_MODE "OFF"
*MEAS_COND_IRRADIATION_WIDTH ""
*MEAS_COND_OPT_ATTR "High resolution parallel beam Ge(220)x2/RS"
*MEAS_COND_OPT_NAME "@High resolution PB-Ge(220)x2"
*MEAS_COND_UNSYMMETRIC_MODE "OFF"
*MEAS_COND_XG_CURRENT "200.0000000000"
*MEAS_COND_XG_VOLTAGE "45.0000000000"
*MEAS_COND_XG_WAVE_TYPE "Ka1"
*MEAS_DATA_COUNT "3001.0000000000"
*MEAS_SCAN_AXIS_X "2-Theta/Omega"
*MEAS_SCAN_AXIS_X_INTERNAL "TwoThetaOmega"
*MEAS_SCAN_END_TIME "07/25/23 15:56:55"
*MEAS_SCAN_MODE "CONTINUOUS"
*MEAS_SCAN_MONITOR "0"
*MEAS_SCAN_RESOLUTION_X "0.0002"
*MEAS_SCAN_SPEED "0.500000"
*MEAS_SCAN_SPEED_UNIT "deg/min"
*MEAS_SCAN_SPEED_USER "0.500000"
*MEAS_SCAN_START "0.0000000000"
*MEAS_SCAN_START_TIME "07/25/23 15:44:24"
*MEAS_SCAN_STEP "0.0020000000"
*MEAS_SCAN_STOP "6.0000000000"
*MEAS_SCAN_UNIT_X "deg"
*MEAS_SCAN_UNIT_Y "counts"
*RAS_HEADER_END
*RAS_INT_START
0.0000 5011719.0000 1.0000
0.0020 4998754.5000 1.0000
0.0040 5093367.0000 1.0000
0.0060 5076127.0000 1.0000
0.0080 5094056.5000 1.0000
0.0100 5228666.0000 1.0000
0.0120 5301487.5000 1.0000
0.0140 5232390.0000 1.0000
0.0160 5268249.0000 1.0000
0.0180 5210323.0000 1.0000
0.0200 5088678.0000 1.0000
0.0220 5093505.0000 1.0000
0.0240 5067162.5000 1.0000
0.0260 5051164.0000 1.0000
0.0280 4940552.5000 1.0000
0.0300 4889522.0000 1.0000
0.0320 4787599.5000 1.0000
0.0340 4728156.5000 1.0000
0.0360 4558239.5000 1.0000
0.0380 4284055.5000 1.0000
0.0400 3922292.7500 1.0000
0.0420 3728515.5000 1.0000
0.0440 3399439.7500 1.0000
0.0460 3107464.2500 1.0000
0.0480 2808868.5000 1.0000
0.0500 2511927.7500 1.0000
0.0520 2190437.5000 1.0000
0.0540 1888118.0000 1.0000
0.0560 1664412.5000 1.0000
0.0580 1419467.5000 1.0000
0.0600 1182659.7500 1.0000
0.0620 964960.4375 1.0000
0.0640 787037.4375 1.0000
0.0660 638023.5000 1.0000
0.0680 509811.1250 1.0000
0.0700 411404.4375 1.0000
0.0720 323968.2188 1.0000
0.0740 265444.0625 1.0000
0.0760 223908.1406 1.0000
0.0780 189462.4688 1.0000
0.0800 162457.0469 1.0000
0.0820 140411.7969 1.0000
0.0840 124473.6953 1.0000
0.0860 113897.9297 1.0000
0.0880 103724.3516 1.0000
0.0900 96634.1250 1.0000
0.0920 90102.4766 1.0000
0.0940 86616.9453 1.0000
0.0960 79675.6719 1.0000
0.0980 80085.2969 1.0000
0.1000 78685.1250 1.0000
0.1020 74804.8672 1.0000
0.1040 79146.8828 1.0000
0.1060 79489.4766 1.0000
0.1080 77821.1875 1.0000
0.1100 79347.9766 1.0000
0.1120 77828.6406 1.0000
0.1140 82937.7734 1.0000
0.1160 78104.2031 1.0000
0.1180 81850.4063 1.0000
0.1200 82483.4609 1.0000
0.1220 84256.0156 1.0000
0.1240 88754.4375 1.0000
0.1260 88061.7969 1.0000
0.1280 85961.5469 1.0000
0.1300 89268.3359 1.0000
0.1320 88225.6484 1.0000
0.1340 90355.6953 1.0000
0.1360 96313.8672 1.0000
0.1380 92575.1172 1.0000
0.1400 94980.7266 1.0000
0.1420 97133.1172 1.0000
0.1440 98592.8750 1.0000
0.1460 97840.6563 1.0000
0.1480 105094.7344 1.0000
0.1500 100328.1875 1.0000
0.1520 105325.6094 1.0000
0.1540 104513.8047 1.0000
0.1560 106919.4219 1.0000
0.1580 108051.4688 1.0000
0.1600 109637.8359 1.0000
0.1620 109958.0938 1.0000
0.1640 110323.0313 1.0000
0.1660 110211.3125 1.0000
0.1680 113823.4531 1.0000
0.1700 113726.6406 1.0000
0.1720 115298.1016 1.0000
0.1740 118187.8125 1.0000
0.1760 116363.1250 1.0000
0.1780 119707.1484 1.0000
0.1800 123557.6250 1.0000
0.1820 124324.7344 1.0000
0.1840 122537.2813 1.0000
0.1860 121799.9609 1.0000
0.1880 126626.0781 1.0000
0.1900 126767.5859 1.0000
0.1920 131943.7500 1.0000
0.1940 129299.8125 1.0000
0.1960 131005.3359 1.0000
0.1980 133857.8125 1.0000
0.2000 136084.6875 1.0000
0.2020 135742.0938 1.0000
0.2040 135704.8438 1.0000
0.2060 140270.2969 1.0000
0.2080 140851.2188 1.0000
0.2100 135682.5000 1.0000
0.2120 142869.5469 1.0000
0.2140 144090.9844 1.0000
0.2160 142608.8750 1.0000
0.2180 146891.3125 1.0000
0.2200 146727.4688 1.0000
0.2220 150689.6563 1.0000
0.2240 146585.9531 1.0000
0.2260 152849.4844 1.0000
0.2280 150391.7500 1.0000
0.2300 149207.5469 1.0000
0.2320 151076.9375 1.0000
0.2340 154242.2188 1.0000
0.2360 157519.2031 1.0000
0.2380 162278.2969 1.0000
0.2400 158487.4063 1.0000
0.2420 165287.1719 1.0000
0.2440 160319.5469 1.0000
0.2460 163425.2500 1.0000
0.2480 163514.6250 1.0000
0.2500 166218.1406 1.0000
0.2520 167260.8125 1.0000
0.2540 166560.7344 1.0000
0.2560 166702.2344 1.0000
0.2580 171357.0625 1.0000
0.2600 173822.2656 1.0000
0.2620 171029.3594 1.0000
0.2640 175833.1406 1.0000
0.2660 174559.5781 1.0000
0.2680 173866.9531 1.0000
0.2700 178074.9063 1.0000
0.2720 185075.7656 1.0000
0.2740 187846.3125 1.0000
0.2760 181940.2656 1.0000
0.2780 179206.9531 1.0000
0.2800 184941.7031 1.0000
0.2820 189097.5156 1.0000
0.2840 190572.1719 1.0000
0.2860 189916.7813 1.0000
0.2880 193640.6250 1.0000
0.2900 189857.1875 1.0000
0.2920 194474.7813 1.0000
0.2940 196560.1406 1.0000
0.2960 197617.7188 1.0000
0.2980 193782.1406 1.0000
0.3000 189842.2969 1.0000
0.3020 200626.5938 1.0000
0.3040 201051.1094 1.0000
0.3060 204648.3594 1.0000
0.3080 200224.4219 1.0000
0.3100 194258.7969 1.0000
0.3120 209980.9219 1.0000
0.3140 202108.6875 1.0000
0.3160 203844.0000 1.0000
0.3180 207910.4531 1.0000
0.3200 205653.7969 1.0000
0.3220 211954.5625 1.0000
0.3240 215924.2031 1.0000
0.3260 213280.2500 1.0000
0.3280 215603.9531 1.0000
0.3300 217063.7031 1.0000
0.3320 224913.5938 1.0000
0.3340 215886.9688 1.0000
0.3360 216892.4063 1.0000
0.3380 214725.1250 1.0000
0.3400 217175.4219 1.0000
0.3420 221927.0625 1.0000
0.3440 218813.9219 1.0000
0.3460 221115.2656 1.0000
0.3480 227788.4219 1.0000
0.3500 228607.6563 1.0000
0.3520 228913.0156 1.0000
0.3540 232540.0469 1.0000
0.3560 225911.5938 1.0000
0.3580 230894.1250 1.0000
0.3600 233925.3281 1.0000
0.3620 232689.0000 1.0000
0.3640 231743.1563 1.0000
0.3660 233240.1563 1.0000
0.3680 234826.5156 1.0000
0.3700 236956.5625 1.0000
0.3720 240337.8125 1.0000
0.3740 239272.7969 1.0000
0.3760 239853.7188 1.0000
0.3780 247189.7188 1.0000
0.3800 242862.5938 1.0000
0.3820 238379.0625 1.0000
0.3840 245908.7188 1.0000
0.3860 242780.6563 1.0000
0.3880 244218.0781 1.0000
0.3900 241313.4688 1.0000
0.3920 250250.7344 1.0000
0.3940 248619.6719 1.0000
0.3960 251025.2969 1.0000
0.3980 253877.7656 1.0000
0.4000 249870.8906 1.0000
0.4020 260111.5000 1.0000
0.4040 258487.9063 1.0000
0.4060 259366.7344 1.0000
0.4080 261444.6406 1.0000
0.4100 262181.9688 1.0000
0.4120 256194.0000 1.0000
0.4140 258800.7188 1.0000
0.4160 263172.5313 1.0000
0.4180 261072.2656 1.0000
0.4200 266501.6563 1.0000
0.4220 266591.0313 1.0000
0.4240 267678.3750 1.0000
0.4260 269361.5625 1.0000
0.4280 265995.2188 1.0000
0.4300 276548.6250 1.0000
0.4320 270076.5625 1.0000
0.4340 274954.8125 1.0000
0.4360 275312.2813 1.0000
0.4380 268914.7188 1.0000
0.4400 277576.4063 1.0000
0.4420 278872.3125 1.0000
0.4440 280697.0000 1.0000
0.4460 272444.9063 1.0000
0.4480 278969.1250 1.0000
0.4500 280324.5938 1.0000
0.4520 273368.4375 1.0000
0.4540 287444.6250 1.0000
0.4560 282454.6563 1.0000
0.4580 287519.0938 1.0000
0.4600 288055.3438 1.0000
0.4620 286439.1875 1.0000
0.4640 282499.3438 1.0000
0.4660 285478.4375 1.0000
0.4680 286185.9688 1.0000
0.4700 291406.8125 1.0000
0.4720 285679.5000 1.0000
0.4740 289850.2500 1.0000
0.4760 293507.0625 1.0000
0.4780 290155.5938 1.0000
0.4800 293670.9063 1.0000
0.4820 292069.6563 1.0000
0.4840 295815.8750 1.0000
0.4860 298951.3438 1.0000
0.4880 294646.5625 1.0000
0.4900 294430.5938 1.0000
0.4920 294222.0625 1.0000
0.4940 296515.9375 1.0000
0.4960 293901.7813 1.0000
0.4980 299547.1563 1.0000
0.5000 302980.5625 1.0000
0.5020 298042.7188 1.0000
0.5040 302459.2188 1.0000
0.5060 302965.6563 1.0000
0.5080 311158.1563 1.0000
0.5100 303576.3750 1.0000
0.5120 299547.1563 1.0000
0.5140 310026.0938 1.0000
0.5160 308908.9375 1.0000
0.5180 304931.8750 1.0000
0.5200 307263.0000 1.0000
0.5220 307344.9063 1.0000
0.5240 309973.9688 1.0000
0.5260 315626.7813 1.0000
0.5280 316393.9063 1.0000
0.5300 310279.3125 1.0000
0.5320 314338.3438 1.0000
