*RAS_DATA_START
*RAS_HEADER_START
*DISP_FMT_X "%.4f"
*DISP_FMT_Y "%.0f"
*DISP_FULLSCALE "695501655.2931908400"
*DISP_LINE_COLOR "255.0000000000"
*DISP_LINE_STYLE "0.0000000000"
*DISP_LINE_WIDTH "0.2500000000"
*DISP_NOTE "Collected Data-18"
*DISP_OFFSET_Y "0.0000000000"
*DISP_PEAKSEARCH_UNIT_Y "cps"
*DISP_RANGE_BOTTOM "0.0100000000"
*DISP_RANGE_LEFT "-0.0006000000"
*DISP_RANGE_LOGCUTOFF "0.0100000000"
*DISP_RANGE_RIGHT "85.0000000000"
*DISP_RANGE_TOP "695501655.2931908400"
*DISP_SCALE_MODE_Y "2.0000000000"
*DISP_TAB_NAME "2-Theta/Omega"
*DISP_TITLE_Y "Intensity"
*DISP_UNIT_Y "cps"
*DISP_WINDOW_NAME "MSG_MACROENGINE"
*FILE_COMMENT " "
*FILE_MD5 ""
*FILE_MEMO " "
*FILE_OPERATOR "Administrator"
*FILE_PART_ID "MEAS_KHP2_00055"
*FILE_SAMPLE "CWOI11"
*FILE_TYPE "RAS_RAW"
*FILE_USERGROUP "System Manager"
*FILE_VERSION "1.0000000000"
*HW_ATTACHMENT_ID "ATT0025"
*HW_ATTACHMENT_NAME "標準|Standard"
*HW_COUNTER_ID-0 "CUT0025"
*HW_COUNTER_ID-1 "CUT0020"
*HW_COUNTER_ID-2 "CUT0020"
*HW_COUNTER_ID-3 "CSL0021"
*HW_COUNTER_ID-4 "CMC0021"
*HW_COUNTER_NAME-0 "D/teX Ultra|D/teX Ultra"
*HW_COUNTER_NAME-1 "None|None"
*HW_COUNTER_NAME-2 "None|None"
*HW_COUNTER_NAME-3 "BBM|BBM"
*HW_COUNTER_NAME-4 "検出器モノクロメータ|Detector monochromator"
*HW_COUNTER_SELECT_NAME "D/teX Ultra|D/teX Ultra"
*HW_GONIOMETER_ID "GON0023"
*HW_GONIOMETER_NAME "SmartLab|SmartLab"
*HW_GONIOMETER_RADIUS-0 "90.0"
*HW_GONIOMETER_RADIUS-1 "114.0"
*HW_GONIOMETER_RADIUS-2 "190.0"
*HW_GONIOMETER_RADIUS-3 "300.0"
*HW_GONIOMETER_RADIUS-4 "187.0"
*HW_GONIOMETER_RADIUS-5 "300.0"
*HW_GONIOMETER_RADIUS-6 "113.0"
*HW_GONIOMETER_RADIUS-7 "331.0"
*HW_I_OPT_ID-0 "CBO0021"
*HW_I_OPT_ID-1 "ICR0021"
*HW_I_OPT_ID-2 "ISL0021"
*HW_I_OPT_ID-3 "ISO0021"
*HW_I_OPT_ID-4 "IAD0021"
*HW_I_OPT_ID-5 "IPR0001"
*HW_I_OPT_NAME-0 "CBOユニット|CBO unit"
*HW_I_OPT_NAME-1 "標準入射光学ユニット|Standard incident optical unit"
*HW_I_OPT_NAME-2 "標準入射スリットボックス|Standard incident slit box"
*HW_I_OPT_NAME-3 "入射平行スリット|Incident parallel slit"
*HW_I_OPT_NAME-4 "長手制限スリット|Length limiting slit"
*HW_I_OPT_NAME-5 "None|None"
*HW_R_ATTENUATER_AUTOMODE "1"
*HW_R_OPT_ID-0 "RSS0021"
*HW_R_OPT_ID-1 "RCR0023"
*HW_R_OPT_ID-2 "RSO0021"
*HW_R_OPT_ID-3 "RRS0021"
*HW_R_OPT_ID-4 "ATN0021"
*HW_R_OPT_ID-5 "RFL0021"
*HW_R_OPT_ID-6 "RAD0021"
*HW_R_OPT_NAME-0 "標準受光スリットボックス1|Standard receiving slit box # 1"
*HW_R_OPT_NAME-1 "標準受光光学ユニット1|Standard receiving unit # 1"
*HW_R_OPT_NAME-2 "標準受光光学ユニット2|Standard receiving optical unit # 2"
*HW_R_OPT_NAME-3 "標準受光スリットボックス2|Standard receiving slit box # 2"
*HW_R_OPT_NAME-4 "標準アッテネータ|Standard Attenuator"
*HW_R_OPT_NAME-5 "Cu Kβ|Cu K-beta"
*HW_R_OPT_NAME-6 "調整用受光スリット|Alignment receiving slit"
*HW_SAMPLE_HOLDER_ID "SMP0021"
*HW_SAMPLE_HOLDER_NAME "χφZクレードル|Chi phi Z cradle"
*HW_XG_CURRENT_MAX "200"
*HW_XG_CURRENT_MIN "10"
*HW_XG_CURRENT_RESOLUTION "1"
*HW_XG_CURRENT_UNIT "mA"
*HW_XG_FOCUS "0.4mm x 8mm"
*HW_XG_FOCUS_TYPE "Normal"
*HW_XG_ID "1700"
*HW_XG_NAME "9kW 開放管(45kV 200mA ID:1700)|9kW Rotating anode(45kV 200mA ID:1700)"
*HW_XG_TARGET_ATOMIC_NUMBER "29.0000000000"
*HW_XG_TARGET_NAME "Cu"
*HW_XG_TYPE "Rota"
*HW_XG_VOLTAGE_MAX "45"
*HW_XG_VOLTAGE_MIN "20"
*HW_XG_VOLTAGE_RESOLUTION "1"
*HW_XG_VOLTAGE_UNIT "kV"
*HW_XG_WATT_MAX "9.00"
*HW_XG_WATT_UNIT "kW"
*HW_XG_WAVE_LENGTH_ALPHA1 "1.540593"
*HW_XG_WAVE_LENGTH_ALPHA2 "1.544414"
*HW_XG_WAVE_LENGTH_BETA "1.392250"
*MEAS_COND_AXIS_NAME-0 "Theta/2-Theta"
*MEAS_COND_AXIS_NAME-1 "2-Theta"
*MEAS_COND_AXIS_NAME-2 "Omega"
*MEAS_COND_AXIS_NAME-3 "Chi"
*MEAS_COND_AXIS_NAME-4 "Phi"
*MEAS_COND_AXIS_NAME-5 "Z"
*MEAS_COND_AXIS_NAME-6 "2-Theta/Omega"
*MEAS_COND_AXIS_NAME-7 "Theta_s"
*MEAS_COND_AXIS_NAME-8 "Theta_d"
*MEAS_COND_AXIS_NAME-9 "Ts"
*MEAS_COND_AXIS_NAME-10 "CBO selection slit"
*MEAS_COND_AXIS_NAME-11 "M"
*MEAS_COND_AXIS_NAME-12 "Incident parallel slit"
*MEAS_COND_AXIS_NAME-13 "Incident slit"
*MEAS_COND_AXIS_NAME-14 ""
*MEAS_COND_AXIS_NAME-15 "Zs"
*MEAS_COND_AXIS_NAME-16 "Incident optical device"
*MEAS_COND_AXIS_NAME-17 "Omega_m"
*MEAS_COND_AXIS_NAME-18 "Length limiting slit"
*MEAS_COND_AXIS_NAME-19 "Center slit"
*MEAS_COND_AXIS_NAME-20 "Filter"
*MEAS_COND_AXIS_NAME-21 "Receiving slit # 1"
*MEAS_COND_AXIS_NAME-22 "Receiving slit # 2"
*MEAS_COND_AXIS_NAME-23 "Receiving optical device"
*MEAS_COND_AXIS_NAME-24 "Receiving parallel slit"
*MEAS_COND_AXIS_NAME-25 "Alignment receiving slit"
*MEAS_COND_AXIS_NAME-26 ""
*MEAS_COND_AXIS_NAME-27 ""
*MEAS_COND_AXIS_NAME-28 "Zd"
*MEAS_COND_AXIS_NAME-29 "Attenuator"
*MEAS_COND_AXIS_NAME-30 "Diffracted beam monochromator"
*MEAS_COND_AXIS_NAME-31 "Monochromator slit"
*MEAS_COND_AXIS_NAME-32 "Primary beam"
*MEAS_COND_AXIS_NAME-33 ""
*MEAS_COND_AXIS_NAME-34 ""
*MEAS_COND_AXIS_NAME-35 "PHA"
*MEAS_COND_AXIS_NAME_INTERNAL-0 "TwoThetaTheta"
*MEAS_COND_AXIS_NAME_INTERNAL-1 "TwoTheta"
*MEAS_COND_AXIS_NAME_INTERNAL-2 "Omega"
*MEAS_COND_AXIS_NAME_INTERNAL-3 "Chi"
*MEAS_COND_AXIS_NAME_INTERNAL-4 "Phi"
*MEAS_COND_AXIS_NAME_INTERNAL-5 "Z"
*MEAS_COND_AXIS_NAME_INTERNAL-6 "TwoThetaOmega"
*MEAS_COND_AXIS_NAME_INTERNAL-7 "ThetaS"
*MEAS_COND_AXIS_NAME_INTERNAL-8 "ThetaD"
*MEAS_COND_AXIS_NAME_INTERNAL-9 "Ts"
*MEAS_COND_AXIS_NAME_INTERNAL-10 "CBO"
*MEAS_COND_AXIS_NAME_INTERNAL-11 "CBO-M"
*MEAS_COND_AXIS_NAME_INTERNAL-12 "IncidentSollerSlit"
*MEAS_COND_AXIS_NAME_INTERNAL-13 "IncidentSlitBox"
*MEAS_COND_AXIS_NAME_INTERNAL-14 "IncidentSlitBox-_Axis"
*MEAS_COND_AXIS_NAME_INTERNAL-15 "Zs"
*MEAS_COND_AXIS_NAME_INTERNAL-16 "IncidentMonochromator"
*MEAS_COND_AXIS_NAME_INTERNAL-17 "IncidentMonochromator-OmegaM"
*MEAS_COND_AXIS_NAME_INTERNAL-18 "IncidentAxdSlit"
*MEAS_COND_AXIS_NAME_INTERNAL-19 "CenterSlit"
*MEAS_COND_AXIS_NAME_INTERNAL-20 "Filter"
*MEAS_COND_AXIS_NAME_INTERNAL-21 "ReceivingSlitBox1"
*MEAS_COND_AXIS_NAME_INTERNAL-22 "ReceivingSlitBox2"
*MEAS_COND_AXIS_NAME_INTERNAL-23 "ReceivingOptics"
*MEAS_COND_AXIS_NAME_INTERNAL-24 "ReceivingSollerSlit"
*MEAS_COND_AXIS_NAME_INTERNAL-25 "ReceivingAxdSlit"
*MEAS_COND_AXIS_NAME_INTERNAL-26 "ReceivingSlitBox1-_Axis"
*MEAS_COND_AXIS_NAME_INTERNAL-27 "ReceivingSlitBox2-_Axis"
*MEAS_COND_AXIS_NAME_INTERNAL-28 "ReceivingSlitBox2-Zd"
*MEAS_COND_AXIS_NAME_INTERNAL-29 "Attenuator"
*MEAS_COND_AXIS_NAME_INTERNAL-30 "CounterMonochromator"
*MEAS_COND_AXIS_NAME_INTERNAL-31 "CounterSlit"
*MEAS_COND_AXIS_NAME_INTERNAL-32 "IncidentPrimary"
*MEAS_COND_AXIS_NAME_INTERNAL-33 "AlphaR"
*MEAS_COND_AXIS_NAME_INTERNAL-34 "BetaR"
*MEAS_COND_AXIS_NAME_INTERNAL-35 "PHA"
*MEAS_COND_AXIS_NAME_MAGICNO-0 "83951616.0000000000"
*MEAS_COND_AXIS_NAME_MAGICNO-1 "268632064.0000000000"
*MEAS_COND_AXIS_NAME_MAGICNO-2 "268500992.0000000000"
*MEAS_COND_AXIS_NAME_MAGICNO-3 "268500992.0000000000"
*MEAS_COND_AXIS_NAME_MAGICNO-4 "268500992.0000000000"
*MEAS_COND_AXIS_NAME_MAGICNO-5 "285278208.0000000000"
*MEAS_COND_AXIS_NAME_MAGICNO-6 "83951616.0000000000"
*MEAS_COND_AXIS_NAME_MAGICNO-7 "131072.0000000000"
*MEAS_COND_AXIS_NAME_MAGICNO-8 "131072.0000000000"
*MEAS_COND_AXIS_NAME_MAGICNO-9 "318898176.0000000000"
*MEAS_COND_AXIS_NAME_MAGICNO-10 "20971521.0000000000"
*MEAS_COND_AXIS_NAME_MAGICNO-11 "285343744.0000000000"
*MEAS_COND_AXIS_NAME_MAGICNO-12 "20971521.0000000000"
*MEAS_COND_AXIS_NAME_MAGICNO-13 "22020097.0000000000"
*MEAS_COND_AXIS_NAME_MAGICNO-14 "25165824.0000000000"
*MEAS_COND_AXIS_NAME_MAGICNO-15 "318898176.0000000000"
*MEAS_COND_AXIS_NAME_MAGICNO-16 "20971521.0000000000"
*MEAS_COND_AXIS_NAME_MAGICNO-17 "285343744.0000000000"
*MEAS_COND_AXIS_NAME_MAGICNO-18 "20971521.0000000000"
*MEAS_COND_AXIS_NAME_MAGICNO-19 "20971521.0000000000"
*MEAS_COND_AXIS_NAME_MAGICNO-20 "20971521.0000000000"
*MEAS_COND_AXIS_NAME_MAGICNO-21 "23068673.0000000000"
*MEAS_COND_AXIS_NAME_MAGICNO-22 "23068673.0000000000"
*MEAS_COND_AXIS_NAME_MAGICNO-23 "20971521.0000000000"
*MEAS_COND_AXIS_NAME_MAGICNO-24 "20971521.0000000000"
*MEAS_COND_AXIS_NAME_MAGICNO-25 "20971521.0000000000"
*MEAS_COND_AXIS_NAME_MAGICNO-26 "25165824.0000000000"
*MEAS_COND_AXIS_NAME_MAGICNO-27 "25165824.0000000000"
*MEAS_COND_AXIS_NAME_MAGICNO-28 "285343744.0000000000"
*MEAS_COND_AXIS_NAME_MAGICNO-29 "17301505.0000000000"
*MEAS_COND_AXIS_NAME_MAGICNO-30 "20971521.0000000000"
*MEAS_COND_AXIS_NAME_MAGICNO-31 "20971521.0000000000"
*MEAS_COND_AXIS_NAME_MAGICNO-32 "20971521.0000000000"
*MEAS_COND_AXIS_NAME_MAGICNO-33 "8388608.0000000000"
*MEAS_COND_AXIS_NAME_MAGICNO-34 "8388608.0000000000"
*MEAS_COND_AXIS_NAME_MAGICNO-35 "0.0000000000"
*MEAS_COND_AXIS_OFFSET-0 "-"
*MEAS_COND_AXIS_OFFSET-1 "0.8864000000"
*MEAS_COND_AXIS_OFFSET-2 "0.4222000000"
*MEAS_COND_AXIS_OFFSET-3 "0.0000000000"
*MEAS_COND_AXIS_OFFSET-4 "0.0000000000"
*MEAS_COND_AXIS_OFFSET-5 "-"
*MEAS_COND_AXIS_OFFSET-6 "-"
*MEAS_COND_AXIS_OFFSET-7 "0.4222000000"
*MEAS_COND_AXIS_OFFSET-8 "0.4642000000"
*MEAS_COND_AXIS_OFFSET-9 "-"
*MEAS_COND_AXIS_OFFSET-10 "-"
*MEAS_COND_AXIS_OFFSET-11 "-"
*MEAS_COND_AXIS_OFFSET-12 "-"
*MEAS_COND_AXIS_OFFSET-13 "-"
*MEAS_COND_AXIS_OFFSET-14 "-"
*MEAS_COND_AXIS_OFFSET-15 "-"
*MEAS_COND_AXIS_OFFSET-16 "-"
*MEAS_COND_AXIS_OFFSET-17 "-"
*MEAS_COND_AXIS_OFFSET-18 "-"
*MEAS_COND_AXIS_OFFSET-19 "-"
*MEAS_COND_AXIS_OFFSET-20 "-"
*MEAS_COND_AXIS_OFFSET-21 "-"
*MEAS_COND_AXIS_OFFSET-22 "-"
*MEAS_COND_AXIS_OFFSET-23 "-"
*MEAS_COND_AXIS_OFFSET-24 "-"
*MEAS_COND_AXIS_OFFSET-25 "-"
*MEAS_COND_AXIS_OFFSET-26 "-"
*MEAS_COND_AXIS_OFFSET-27 "-"
*MEAS_COND_AXIS_OFFSET-28 "-"
*MEAS_COND_AXIS_OFFSET-29 "-"
*MEAS_COND_AXIS_OFFSET-30 "-"
*MEAS_COND_AXIS_OFFSET-31 "-"
*MEAS_COND_AXIS_OFFSET-32 "-"
*MEAS_COND_AXIS_OFFSET-33 "0.0000000000"
*MEAS_COND_AXIS_OFFSET-34 "0.0000000000"
*MEAS_COND_AXIS_OFFSET-35 "-"
*MEAS_COND_AXIS_POSITION-0 "-0.0008000000"
*MEAS_COND_AXIS_POSITION-1 "-0.0008000000"
*MEAS_COND_AXIS_POSITION-2 "-0.0004000000"
*MEAS_COND_AXIS_POSITION-3 "0.0000000000"
*MEAS_COND_AXIS_POSITION-4 "0.0000000000"
*MEAS_COND_AXIS_POSITION-5 "-1.4199000000"
*MEAS_COND_AXIS_POSITION-6 "-0.0008000000"
*MEAS_COND_AXIS_POSITION-7 "-0.0004000000"
*MEAS_COND_AXIS_POSITION-8 "-0.0004000000"
*MEAS_COND_AXIS_POSITION-9 "-4.7346300000"
*MEAS_COND_AXIS_POSITION-10 "PB"
*MEAS_COND_AXIS_POSITION-11 "0.0000000000"
*MEAS_COND_AXIS_POSITION-12 "Soller_slit_open_s"
*MEAS_COND_AXIS_POSITION-13 "0.250mm"
*MEAS_COND_AXIS_POSITION-14 "0.2500000000"
*MEAS_COND_AXIS_POSITION-15 "-1.7618800000"
*MEAS_COND_AXIS_POSITION-16 "Ge(220)x2"
*MEAS_COND_AXIS_POSITION-17 "0.0000000000"
*MEAS_COND_AXIS_POSITION-18 "2.0mm"
*MEAS_COND_AXIS_POSITION-19 "None"
*MEAS_COND_AXIS_POSITION-20 "None"
*MEAS_COND_AXIS_POSITION-21 "0.250mm"
*MEAS_COND_AXIS_POSITION-22 "0.250mm"
*MEAS_COND_AXIS_POSITION-23 "No_unit"
*MEAS_COND_AXIS_POSITION-24 "Soller_slit_5.0deg"
*MEAS_COND_AXIS_POSITION-25 "None"
*MEAS_COND_AXIS_POSITION-26 "0.2500000000"
*MEAS_COND_AXIS_POSITION-27 "0.2500000000"
*MEAS_COND_AXIS_POSITION-28 "0.0903100000"
*MEAS_COND_AXIS_POSITION-29 "1/10000"
*MEAS_COND_AXIS_POSITION-30 "None"
*MEAS_COND_AXIS_POSITION-31 "None"
*MEAS_COND_AXIS_POSITION-32 "None"
*MEAS_COND_AXIS_POSITION-33 "0.0000000000"
*MEAS_COND_AXIS_POSITION-34 "0.0000000000"
*MEAS_COND_AXIS_POSITION-35 "34.0000000000"
*MEAS_COND_AXIS_UNIT-0 "deg"
*MEAS_COND_AXIS_UNIT-1 "deg"
*MEAS_COND_AXIS_UNIT-2 "deg"
*MEAS_COND_AXIS_UNIT-3 "deg"
*MEAS_COND_AXIS_UNIT-4 "deg"
*MEAS_COND_AXIS_UNIT-5 "mm"
*MEAS_COND_AXIS_UNIT-6 "deg"
*MEAS_COND_AXIS_UNIT-7 "deg"
*MEAS_COND_AXIS_UNIT-8 "deg"
*MEAS_COND_AXIS_UNIT-9 "mm"
*MEAS_COND_AXIS_UNIT-10 ""
*MEAS_COND_AXIS_UNIT-11 "pulse"
*MEAS_COND_AXIS_UNIT-12 ""
*MEAS_COND_AXIS_UNIT-13 ""
*MEAS_COND_AXIS_UNIT-14 "mm"
*MEAS_COND_AXIS_UNIT-15 "mm"
*MEAS_COND_AXIS_UNIT-16 ""
*MEAS_COND_AXIS_UNIT-17 "pulse"
*MEAS_COND_AXIS_UNIT-18 ""
*MEAS_COND_AXIS_UNIT-19 ""
*MEAS_COND_AXIS_UNIT-20 ""
*MEAS_COND_AXIS_UNIT-21 ""
*MEAS_COND_AXIS_UNIT-22 ""
*MEAS_COND_AXIS_UNIT-23 ""
*MEAS_COND_AXIS_UNIT-24 ""
*MEAS_COND_AXIS_UNIT-25 ""
*MEAS_COND_AXIS_UNIT-26 "mm"
*MEAS_COND_AXIS_UNIT-27 "mm"
*MEAS_COND_AXIS_UNIT-28 "mm"
*MEAS_COND_AXIS_UNIT-29 ""
*MEAS_COND_AXIS_UNIT-30 ""
*MEAS_COND_AXIS_UNIT-31 ""
*MEAS_COND_AXIS_UNIT-32 ""
*MEAS_COND_AXIS_UNIT-33 "deg"
*MEAS_COND_AXIS_UNIT-34 "deg"
*MEAS_COND_AXIS_UNIT-35 "div"
*MEAS_COND_COUNTER_CNTLOSS_CORR "0.0000000000"
*MEAS_COND_COUNTER_PHABASE "34.0000000000"
*MEAS_COND_COUNTER_PHAWINDOW "19.0000000000"
*MEAS_COND_COUNTER_PHA_UNIT "div"
*MEAS_COND_COUNTER_TAUDIFF "2.0000000000"
*MEAS_COND_COUNTER_TAUINT "0.1000000000"
*MEAS_COND_IRRADIATION_MODE "OFF"
*MEAS_COND_IRRADIATION_WIDTH ""
*MEAS_COND_OPT_ATTR "High resolution parallel beam Ge(220)x2/RS"
*MEAS_COND_OPT_NAME "@High resolution PB-Ge(220)x2"
*MEAS_COND_UNSYMMETRIC_MODE "OFF"
*MEAS_COND_XG_CURRENT "200.0000000000"
*MEAS_COND_XG_VOLTAGE "45.0000000000"
*MEAS_COND_XG_WAVE_TYPE "Ka1"
*MEAS_DATA_COUNT "3001.0000000000"
*MEAS_SCAN_AXIS_X "2-Theta/Omega"
*MEAS_SCAN_AXIS_X_INTERNAL "TwoThetaOmega"
*MEAS_SCAN_END_TIME "11/21/23 14:32:50"
*MEAS_SCAN_MODE "CONTINUOUS"
*MEAS_SCAN_MONITOR "0"
*MEAS_SCAN_RESOLUTION_X "0.0002"
*MEAS_SCAN_SPEED "0.500000"
*MEAS_SCAN_SPEED_UNIT "deg/min"
*MEAS_SCAN_SPEED_USER "0.500000"
*MEAS_SCAN_START "0.0000000000"
*MEAS_SCAN_START_TIME "11/21/23 14:20:19"
*MEAS_SCAN_STEP "0.0020000000"
*MEAS_SCAN_STOP "6.0000000000"
*MEAS_SCAN_UNIT_X "deg"
*MEAS_SCAN_UNIT_Y "counts"
*RAS_HEADER_END
*RAS_INT_START
0.0000 5239975.5000 1.0000
0.0020 5376792.0000 1.0000
0.0040 5398997.0000 1.0000
0.0060 5530296.0000 1.0000
0.0080 5420374.5000 1.0000
0.0100 5406720.0000 1.0000
0.0120 5394997.0000 1.0000
0.0140 5390721.5000 1.0000
0.0160 5420512.0000 1.0000
0.0180 5345346.0000 1.0000
0.0200 5191566.0000 1.0000
0.0220 5113089.5000 1.0000
0.0240 5090746.5000 1.0000
0.0260 5003443.5000 1.0000
0.0280 5092815.5000 1.0000
0.0300 4983445.5000 1.0000
0.0320 4692435.0000 1.0000
0.0340 4524725.0000 1.0000
0.0360 4521553.0000 1.0000
0.0380 4333430.5000 1.0000
0.0400 3981046.2500 1.0000
0.0420 3771960.2500 1.0000
0.0440 3435436.7500 1.0000
0.0460 3102637.0000 1.0000
0.0480 2810799.5000 1.0000
0.0500 2417177.0000 1.0000
0.0520 2179817.7500 1.0000
0.0540 1921080.7500 1.0000
0.0560 1546905.1250 1.0000
0.0580 1400158.7500 1.0000
0.0600 1142990.8750 1.0000
0.0620 937324.9375 1.0000
0.0640 748651.9375 1.0000
0.0660 611800.1250 1.0000
0.0680 474546.1563 1.0000
0.0700 380340.0000 1.0000
0.0720 291168.4688 1.0000
0.0740 232428.3438 1.0000
0.0760 190736.0313 1.0000
0.0780 161213.2813 1.0000
0.0800 138192.3750 1.0000
0.0820 123155.4375 1.0000
0.0840 110576.2500 1.0000
0.0860 98734.3828 1.0000
0.0880 88046.9063 1.0000
0.0900 85335.9375 1.0000
0.0920 82624.9688 1.0000
0.0940 76540.1875 1.0000
0.0960 75907.1250 1.0000
0.0980 74425.0313 1.0000
0.1000 72995.0703 1.0000
0.1020 76905.1250 1.0000
0.1040 74246.2891 1.0000
0.1060 75668.8047 1.0000
0.1080 78528.7266 1.0000
0.1100 80048.0625 1.0000
0.1120 77836.0859 1.0000
0.1140 76949.8125 1.0000
0.1160 80643.8750 1.0000
0.1180 82200.4453 1.0000
0.1200 83868.7344 1.0000
0.1220 83369.7422 1.0000
0.1240 85201.8828 1.0000
0.1260 86460.5391 1.0000
0.1280 84702.8828 1.0000
0.1300 92046.3281 1.0000
0.1320 93811.4375 1.0000
0.1340 94615.7969 1.0000
0.1360 92403.8203 1.0000
0.1380 97639.5625 1.0000
0.1400 96418.1406 1.0000
0.1420 97550.1953 1.0000
0.1440 96671.3594 1.0000
0.1460 101802.8359 1.0000
0.1480 100864.4297 1.0000
0.1500 100924.0078 1.0000
0.1520 101676.2266 1.0000
0.1540 105176.6563 1.0000
0.1560 104290.3750 1.0000
0.1580 107023.6875 1.0000
0.1600 112780.7734 1.0000
0.1620 111730.6484 1.0000
0.1640 113607.4688 1.0000
0.1660 113041.4453 1.0000
0.1680 112750.9844 1.0000
0.1700 116370.5703 1.0000
0.1720 115908.8203 1.0000
0.1740 116050.3203 1.0000
0.1760 118716.6016 1.0000
0.1780 122917.1172 1.0000
0.1800 123073.5156 1.0000
0.1820 124503.4766 1.0000
0.1840 124429.0078 1.0000
0.1860 124764.1563 1.0000
0.1880 126596.2891 1.0000
0.1900 127549.5938 1.0000
0.1920 133299.2344 1.0000
0.1940 131407.5156 1.0000
0.1960 126819.7188 1.0000
0.1980 138713.7188 1.0000
0.2000 137782.7656 1.0000
0.2020 133157.7188 1.0000
0.2040 138862.6719 1.0000
0.2060 135027.1094 1.0000
0.2080 136039.9844 1.0000
0.2100 144612.3125 1.0000
0.2120 142906.7813 1.0000
0.2140 142988.7188 1.0000
0.2160 146734.9219 1.0000
0.2180 146682.7813 1.0000
0.2200 148991.5781 1.0000
0.2220 149468.2344 1.0000
0.2240 150458.7813 1.0000
0.2260 153743.2188 1.0000
0.2280 150615.1719 1.0000
0.2300 156379.7031 1.0000
0.2320 157318.1250 1.0000
0.2340 158740.6406 1.0000
0.2360 161593.1094 1.0000
0.2380 165130.7813 1.0000
0.2400 164840.3125 1.0000
0.2420 162628.3438 1.0000
0.2440 163015.6250 1.0000
0.2460 164147.6719 1.0000
0.2480 164810.5156 1.0000
0.2500 170478.2344 1.0000
0.2520 169644.0938 1.0000
0.2540 172072.0469 1.0000
0.2560 169256.8125 1.0000
0.2580 172012.4688 1.0000
0.2600 174991.5469 1.0000
0.2620 175959.7500 1.0000
0.2640 175959.7500 1.0000
0.2660 179825.1250 1.0000
0.2680 180875.2500 1.0000
0.2700 183370.2344 1.0000
0.2720 182714.8438 1.0000
0.2740 185544.9688 1.0000
0.2760 188821.9531 1.0000
0.2780 182044.5469 1.0000
0.2800 182104.1250 1.0000
0.2820 190006.1406 1.0000
0.2840 191830.8438 1.0000
0.2860 190028.4844 1.0000
0.2880 192456.4531 1.0000
0.2900 190884.9844 1.0000
0.2920 192851.1719 1.0000
0.2940 193767.2500 1.0000
0.2960 198258.2188 1.0000
0.2980 197222.9844 1.0000
0.3000 196187.7500 1.0000
0.3020 196493.1094 1.0000
0.3040 197520.8906 1.0000
0.3060 204968.6094 1.0000
0.3080 204261.0781 1.0000
0.3100 201259.6406 1.0000
0.3120 201066.0000 1.0000
0.3140 200939.3906 1.0000
0.3160 207053.9688 1.0000
0.3180 206271.9531 1.0000
0.3200 209377.6563 1.0000
0.3220 209377.6563 1.0000
0.3240 217666.9688 1.0000
0.3260 210271.3906 1.0000
0.3280 212356.7500 1.0000
0.3300 216840.2656 1.0000
0.3320 212431.2188 1.0000
0.3340 221994.0938 1.0000
0.3360 221048.2344 1.0000
0.3380 221063.1250 1.0000
0.3400 217659.5156 1.0000
0.3420 219938.5156 1.0000
0.3440 219201.1875 1.0000
0.3460 228764.0625 1.0000
0.3480 219543.7813 1.0000
0.3500 220936.5156 1.0000
0.3520 231303.7344 1.0000
0.3540 226760.6250 1.0000
0.3560 229076.8750 1.0000
0.3580 230253.6094 1.0000
0.3600 235169.0938 1.0000
0.3620 231013.2813 1.0000
0.3640 237172.5313 1.0000
0.3660 230529.1719 1.0000
0.3680 231594.2031 1.0000
0.3700 238401.4219 1.0000
0.3720 240002.6719 1.0000
0.3740 239570.7031 1.0000
0.3760 244359.5781 1.0000
0.3780 248210.0469 1.0000
0.3800 240196.3125 1.0000
0.3820 239838.8125 1.0000
0.3840 246519.4219 1.0000
0.3860 251278.5156 1.0000
0.3880 251919.0156 1.0000
0.3900 249409.1406 1.0000
0.3920 253557.5156 1.0000
0.3940 251278.5156 1.0000
0.3960 248962.2813 1.0000
0.3980 252701.0313 1.0000
0.4000 255762.0469 1.0000
0.4020 257050.4844 1.0000
0.4040 259076.2813 1.0000
0.4060 258636.8438 1.0000
0.4080 257124.9688 1.0000
0.4100 266494.2188 1.0000
0.4120 264088.5938 1.0000
0.4140 258904.9688 1.0000
0.4160 265719.6250 1.0000
0.4180 266434.6250 1.0000
0.4200 267953.9375 1.0000
0.4220 265228.0938 1.0000
0.4240 266151.5938 1.0000
0.4260 269421.1563 1.0000
0.4280 269339.2188 1.0000
0.4300 267812.4375 1.0000
0.4320 277136.9688 1.0000
0.4340 273815.2813 1.0000
0.4360 277986.0313 1.0000
0.4380 273912.1250 1.0000
0.4400 275155.9063 1.0000
0.4420 272616.2188 1.0000
0.4440 273725.9375 1.0000
0.4460 278969.1250 1.0000
0.4480 278261.5938 1.0000
0.4500 287288.2188 1.0000
0.4520 285679.5000 1.0000
0.4540 280659.7500 1.0000
0.4560 281620.5000 1.0000
0.4580 283966.5625 1.0000
0.4600 285381.5938 1.0000
0.4620 287392.5000 1.0000
0.4640 287749.9688 1.0000
0.4660 285686.9688 1.0000
0.4680 282149.2813 1.0000
0.4700 289269.3125 1.0000
0.4720 297081.9688 1.0000
0.4740 291161.0313 1.0000
0.4760 296434.0313 1.0000
0.4780 292442.0313 1.0000
0.4800 295532.8438 1.0000
0.4820 296836.1875 1.0000
0.4840 294944.4688 1.0000
0.4860 300522.8125 1.0000
0.4880 303576.3750 1.0000
0.4900 297484.1563 1.0000
0.4920 298407.6563 1.0000
0.4940 297655.4375 1.0000
0.4960 300075.9688 1.0000
0.4980 305877.7188 1.0000
0.5000 302585.8438 1.0000
0.5020 303151.8438 1.0000
0.5040 306786.3438 1.0000
0.5060 307560.9063 1.0000
0.5080 302392.1875 1.0000
0.5100 309303.6875 1.0000
0.5120 315723.6250 1.0000
0.5140 309080.2500 1.0000
0.5160 312580.6563 1.0000
0.5180 308975.9688 1.0000
0.5200 306957.6563 1.0000
0.5220 316796.0625 1.0000
0.5240 313250.9688 1.0000
0.5260 315142.6875 1.0000
0.5280 312528.5313 1.0000
0.5300 313399.9063 1.0000
0.5320 313876.5625 1.0000
