*RAS_DATA_START
*RAS_HEADER_START
*DISP_FMT_X "%.4f"
*DISP_FMT_Y "%.0f"
*DISP_FULLSCALE "29238934.0000000040"
*DISP_LINE_COLOR "255.0000000000"
*DISP_LINE_STYLE "0.0000000000"
*DISP_LINE_WIDTH "0.2500000000"
*DISP_NOTE "Collected Data-8"
*DISP_OFFSET_Y "0.0000000000"
*DISP_PEAKSEARCH_UNIT_Y "cps"
*DISP_RANGE_BOTTOM "0.0100000000"
*DISP_RANGE_LEFT "-0.0006000000"
*DISP_RANGE_LOGCUTOFF "0.0100000000"
*DISP_RANGE_RIGHT "6.0006000000"
*DISP_RANGE_TOP "29238934.0000000040"
*DISP_SCALE_MODE_Y "2.0000000000"
*DISP_TAB_NAME "2-Theta/Omega"
*DISP_TITLE_Y "Intensity"
*DISP_UNIT_Y "cps"
*DISP_WINDOW_NAME "MSG_MACROENGINE"
*FILE_COMMENT " "
*FILE_MD5 ""
*FILE_MEMO " "
*FILE_OPERATOR "Administrator"
*FILE_PART_ID "MEAS_KHP2_00055"
*FILE_SAMPLE "CWO I-7"
*FILE_TYPE "RAS_RAW"
*FILE_USERGROUP "System Manager"
*FILE_VERSION "1.0000000000"
*HW_ATTACHMENT_ID "ATT0025"
*HW_ATTACHMENT_NAME "標準|Standard"
*HW_COUNTER_ID-0 "CUT0025"
*HW_COUNTER_ID-1 "CUT0020"
*HW_COUNTER_ID-2 "CUT0020"
*HW_COUNTER_ID-3 "CSL0021"
*HW_COUNTER_ID-4 "CMC0021"
*HW_COUNTER_NAME-0 "D/teX Ultra|D/teX Ultra"
*HW_COUNTER_NAME-1 "None|None"
*HW_COUNTER_NAME-2 "None|None"
*HW_COUNTER_NAME-3 "BBM|BBM"
*HW_COUNTER_NAME-4 "検出器モノクロメータ|Detector monochromator"
*HW_COUNTER_SELECT_NAME "D/teX Ultra|D/teX Ultra"
*HW_GONIOMETER_ID "GON0023"
*HW_GONIOMETER_NAME "SmartLab|SmartLab"
*HW_GONIOMETER_RADIUS-0 "90.0"
*HW_GONIOMETER_RADIUS-1 "114.0"
*HW_GONIOMETER_RADIUS-2 "190.0"
*HW_GONIOMETER_RADIUS-3 "300.0"
*HW_GONIOMETER_RADIUS-4 "187.0"
*HW_GONIOMETER_RADIUS-5 "300.0"
*HW_GONIOMETER_RADIUS-6 "113.0"
*HW_GONIOMETER_RADIUS-7 "331.0"
*HW_I_OPT_ID-0 "CBO0021"
*HW_I_OPT_ID-1 "ICR0021"
*HW_I_OPT_ID-2 "ISL0021"
*HW_I_OPT_ID-3 "ISO0021"
*HW_I_OPT_ID-4 "IAD0021"
*HW_I_OPT_ID-5 "IPR0001"
*HW_I_OPT_NAME-0 "CBOユニット|CBO unit"
*HW_I_OPT_NAME-1 "標準入射光学ユニット|Standard incident optical unit"
*HW_I_OPT_NAME-2 "標準入射スリットボックス|Standard incident slit box"
*HW_I_OPT_NAME-3 "入射平行スリット|Incident parallel slit"
*HW_I_OPT_NAME-4 "長手制限スリット|Length limiting slit"
*HW_I_OPT_NAME-5 "None|None"
*HW_R_ATTENUATER_AUTOMODE "1"
*HW_R_OPT_ID-0 "RSS0021"
*HW_R_OPT_ID-1 "RCR0023"
*HW_R_OPT_ID-2 "RSO0021"
*HW_R_OPT_ID-3 "RRS0021"
*HW_R_OPT_ID-4 "ATN0021"
*HW_R_OPT_ID-5 "RFL0021"
*HW_R_OPT_ID-6 "RAD0021"
*HW_R_OPT_NAME-0 "標準受光スリットボックス1|Standard receiving slit box # 1"
*HW_R_OPT_NAME-1 "標準受光光学ユニット1|Standard receiving unit # 1"
*HW_R_OPT_NAME-2 "標準受光光学ユニット2|Standard receiving optical unit # 2"
*HW_R_OPT_NAME-3 "標準受光スリットボックス2|Standard receiving slit box # 2"
*HW_R_OPT_NAME-4 "標準アッテネータ|Standard Attenuator"
*HW_R_OPT_NAME-5 "Cu Kβ|Cu K-beta"
*HW_R_OPT_NAME-6 "調整用受光スリット|Alignment receiving slit"
*HW_SAMPLE_HOLDER_ID "SMP0021"
*HW_SAMPLE_HOLDER_NAME "χφZクレードル|Chi phi Z cradle"
*HW_XG_CURRENT_MAX "200"
*HW_XG_CURRENT_MIN "10"
*HW_XG_CURRENT_RESOLUTION "1"
*HW_XG_CURRENT_UNIT "mA"
*HW_XG_FOCUS "0.4mm x 8mm"
*HW_XG_FOCUS_TYPE "Normal"
*HW_XG_ID "1700"
*HW_XG_NAME "9kW 開放管(45kV 200mA ID:1700)|9kW Rotating anode(45kV 200mA ID:1700)"
*HW_XG_TARGET_ATOMIC_NUMBER "29.0000000000"
*HW_XG_TARGET_NAME "Cu"
*HW_XG_TYPE "Rota"
*HW_XG_VOLTAGE_MAX "45"
*HW_XG_VOLTAGE_MIN "20"
*HW_XG_VOLTAGE_RESOLUTION "1"
*HW_XG_VOLTAGE_UNIT "kV"
*HW_XG_WATT_MAX "9.00"
*HW_XG_WATT_UNIT "kW"
*HW_XG_WAVE_LENGTH_ALPHA1 "1.540593"
*HW_XG_WAVE_LENGTH_ALPHA2 "1.544414"
*HW_XG_WAVE_LENGTH_BETA "1.392250"
*MEAS_COND_AXIS_NAME-0 "Theta/2-Theta"
*MEAS_COND_AXIS_NAME-1 "2-Theta"
*MEAS_COND_AXIS_NAME-2 "Omega"
*MEAS_COND_AXIS_NAME-3 "Chi"
*MEAS_COND_AXIS_NAME-4 "Phi"
*MEAS_COND_AXIS_NAME-5 "Z"
*MEAS_COND_AXIS_NAME-6 "2-Theta/Omega"
*MEAS_COND_AXIS_NAME-7 "Theta_s"
*MEAS_COND_AXIS_NAME-8 "Theta_d"
*MEAS_COND_AXIS_NAME-9 "Ts"
*MEAS_COND_AXIS_NAME-10 "CBO selection slit"
*MEAS_COND_AXIS_NAME-11 "M"
*MEAS_COND_AXIS_NAME-12 "Incident parallel slit"
*MEAS_COND_AXIS_NAME-13 "Incident slit"
*MEAS_COND_AXIS_NAME-14 ""
*MEAS_COND_AXIS_NAME-15 "Zs"
*MEAS_COND_AXIS_NAME-16 "Incident optical device"
*MEAS_COND_AXIS_NAME-17 "Omega_m"
*MEAS_COND_AXIS_NAME-18 "Length limiting slit"
*MEAS_COND_AXIS_NAME-19 "Center slit"
*MEAS_COND_AXIS_NAME-20 "Filter"
*MEAS_COND_AXIS_NAME-21 "Receiving slit # 1"
*MEAS_COND_AXIS_NAME-22 "Receiving slit # 2"
*MEAS_COND_AXIS_NAME-23 "Receiving optical device"
*MEAS_COND_AXIS_NAME-24 "Receiving parallel slit"
*MEAS_COND_AXIS_NAME-25 "Alignment receiving slit"
*MEAS_COND_AXIS_NAME-26 ""
*MEAS_COND_AXIS_NAME-27 ""
*MEAS_COND_AXIS_NAME-28 "Zd"
*MEAS_COND_AXIS_NAME-29 "Attenuator"
*MEAS_COND_AXIS_NAME-30 "Diffracted beam monochromator"
*MEAS_COND_AXIS_NAME-31 "Monochromator slit"
*MEAS_COND_AXIS_NAME-32 "Primary beam"
*MEAS_COND_AXIS_NAME-33 ""
*MEAS_COND_AXIS_NAME-34 ""
*MEAS_COND_AXIS_NAME-35 "PHA"
*MEAS_COND_AXIS_NAME_INTERNAL-0 "TwoThetaTheta"
*MEAS_COND_AXIS_NAME_INTERNAL-1 "TwoTheta"
*MEAS_COND_AXIS_NAME_INTERNAL-2 "Omega"
*MEAS_COND_AXIS_NAME_INTERNAL-3 "Chi"
*MEAS_COND_AXIS_NAME_INTERNAL-4 "Phi"
*MEAS_COND_AXIS_NAME_INTERNAL-5 "Z"
*MEAS_COND_AXIS_NAME_INTERNAL-6 "TwoThetaOmega"
*MEAS_COND_AXIS_NAME_INTERNAL-7 "ThetaS"
*MEAS_COND_AXIS_NAME_INTERNAL-8 "ThetaD"
*MEAS_COND_AXIS_NAME_INTERNAL-9 "Ts"
*MEAS_COND_AXIS_NAME_INTERNAL-10 "CBO"
*MEAS_COND_AXIS_NAME_INTERNAL-11 "CBO-M"
*MEAS_COND_AXIS_NAME_INTERNAL-12 "IncidentSollerSlit"
*MEAS_COND_AXIS_NAME_INTERNAL-13 "IncidentSlitBox"
*MEAS_COND_AXIS_NAME_INTERNAL-14 "IncidentSlitBox-_Axis"
*MEAS_COND_AXIS_NAME_INTERNAL-15 "Zs"
*MEAS_COND_AXIS_NAME_INTERNAL-16 "IncidentMonochromator"
*MEAS_COND_AXIS_NAME_INTERNAL-17 "IncidentMonochromator-OmegaM"
*MEAS_COND_AXIS_NAME_INTERNAL-18 "IncidentAxdSlit"
*MEAS_COND_AXIS_NAME_INTERNAL-19 "CenterSlit"
*MEAS_COND_AXIS_NAME_INTERNAL-20 "Filter"
*MEAS_COND_AXIS_NAME_INTERNAL-21 "ReceivingSlitBox1"
*MEAS_COND_AXIS_NAME_INTERNAL-22 "ReceivingSlitBox2"
*MEAS_COND_AXIS_NAME_INTERNAL-23 "ReceivingOptics"
*MEAS_COND_AXIS_NAME_INTERNAL-24 "ReceivingSollerSlit"
*MEAS_COND_AXIS_NAME_INTERNAL-25 "ReceivingAxdSlit"
*MEAS_COND_AXIS_NAME_INTERNAL-26 "ReceivingSlitBox1-_Axis"
*MEAS_COND_AXIS_NAME_INTERNAL-27 "ReceivingSlitBox2-_Axis"
*MEAS_COND_AXIS_NAME_INTERNAL-28 "ReceivingSlitBox2-Zd"
*MEAS_COND_AXIS_NAME_INTERNAL-29 "Attenuator"
*MEAS_COND_AXIS_NAME_INTERNAL-30 "CounterMonochromator"
*MEAS_COND_AXIS_NAME_INTERNAL-31 "CounterSlit"
*MEAS_COND_AXIS_NAME_INTERNAL-32 "IncidentPrimary"
*MEAS_COND_AXIS_NAME_INTERNAL-33 "AlphaR"
*MEAS_COND_AXIS_NAME_INTERNAL-34 "BetaR"
*MEAS_COND_AXIS_NAME_INTERNAL-35 "PHA"
*MEAS_COND_AXIS_NAME_MAGICNO-0 "83951616.0000000000"
*MEAS_COND_AXIS_NAME_MAGICNO-1 "268632064.0000000000"
*MEAS_COND_AXIS_NAME_MAGICNO-2 "268500992.0000000000"
*MEAS_COND_AXIS_NAME_MAGICNO-3 "268500992.0000000000"
*MEAS_COND_AXIS_NAME_MAGICNO-4 "268500992.0000000000"
*MEAS_COND_AXIS_NAME_MAGICNO-5 "285278208.0000000000"
*MEAS_COND_AXIS_NAME_MAGICNO-6 "83951616.0000000000"
*MEAS_COND_AXIS_NAME_MAGICNO-7 "131072.0000000000"
*MEAS_COND_AXIS_NAME_MAGICNO-8 "131072.0000000000"
*MEAS_COND_AXIS_NAME_MAGICNO-9 "318898176.0000000000"
*MEAS_COND_AXIS_NAME_MAGICNO-10 "20971521.0000000000"
*MEAS_COND_AXIS_NAME_MAGICNO-11 "285343744.0000000000"
*MEAS_COND_AXIS_NAME_MAGICNO-12 "20971521.0000000000"
*MEAS_COND_AXIS_NAME_MAGICNO-13 "22020097.0000000000"
*MEAS_COND_AXIS_NAME_MAGICNO-14 "25165824.0000000000"
*MEAS_COND_AXIS_NAME_MAGICNO-15 "318898176.0000000000"
*MEAS_COND_AXIS_NAME_MAGICNO-16 "20971521.0000000000"
*MEAS_COND_AXIS_NAME_MAGICNO-17 "285343744.0000000000"
*MEAS_COND_AXIS_NAME_MAGICNO-18 "20971521.0000000000"
*MEAS_COND_AXIS_NAME_MAGICNO-19 "20971521.0000000000"
*MEAS_COND_AXIS_NAME_MAGICNO-20 "20971521.0000000000"
*MEAS_COND_AXIS_NAME_MAGICNO-21 "23068673.0000000000"
*MEAS_COND_AXIS_NAME_MAGICNO-22 "23068673.0000000000"
*MEAS_COND_AXIS_NAME_MAGICNO-23 "20971521.0000000000"
*MEAS_COND_AXIS_NAME_MAGICNO-24 "20971521.0000000000"
*MEAS_COND_AXIS_NAME_MAGICNO-25 "20971521.0000000000"
*MEAS_COND_AXIS_NAME_MAGICNO-26 "25165824.0000000000"
*MEAS_COND_AXIS_NAME_MAGICNO-27 "25165824.0000000000"
*MEAS_COND_AXIS_NAME_MAGICNO-28 "285343744.0000000000"
*MEAS_COND_AXIS_NAME_MAGICNO-29 "17301505.0000000000"
*MEAS_COND_AXIS_NAME_MAGICNO-30 "20971521.0000000000"
*MEAS_COND_AXIS_NAME_MAGICNO-31 "20971521.0000000000"
*MEAS_COND_AXIS_NAME_MAGICNO-32 "20971521.0000000000"
*MEAS_COND_AXIS_NAME_MAGICNO-33 "8388608.0000000000"
*MEAS_COND_AXIS_NAME_MAGICNO-34 "8388608.0000000000"
*MEAS_COND_AXIS_NAME_MAGICNO-35 "0.0000000000"
*MEAS_COND_AXIS_OFFSET-0 "-"
*MEAS_COND_AXIS_OFFSET-1 "0.9258000000"
*MEAS_COND_AXIS_OFFSET-2 "0.9293000000"
*MEAS_COND_AXIS_OFFSET-3 "0.0000000000"
*MEAS_COND_AXIS_OFFSET-4 "0.0000000000"
*MEAS_COND_AXIS_OFFSET-5 "-"
*MEAS_COND_AXIS_OFFSET-6 "-"
*MEAS_COND_AXIS_OFFSET-7 "0.9293000000"
*MEAS_COND_AXIS_OFFSET-8 "-0.0035000000"
*MEAS_COND_AXIS_OFFSET-9 "-"
*MEAS_COND_AXIS_OFFSET-10 "-"
*MEAS_COND_AXIS_OFFSET-11 "-"
*MEAS_COND_AXIS_OFFSET-12 "-"
*MEAS_COND_AXIS_OFFSET-13 "-"
*MEAS_COND_AXIS_OFFSET-14 "-"
*MEAS_COND_AXIS_OFFSET-15 "-"
*MEAS_COND_AXIS_OFFSET-16 "-"
*MEAS_COND_AXIS_OFFSET-17 "-"
*MEAS_COND_AXIS_OFFSET-18 "-"
*MEAS_COND_AXIS_OFFSET-19 "-"
*MEAS_COND_AXIS_OFFSET-20 "-"
*MEAS_COND_AXIS_OFFSET-21 "-"
*MEAS_COND_AXIS_OFFSET-22 "-"
*MEAS_COND_AXIS_OFFSET-23 "-"
*MEAS_COND_AXIS_OFFSET-24 "-"
*MEAS_COND_AXIS_OFFSET-25 "-"
*MEAS_COND_AXIS_OFFSET-26 "-"
*MEAS_COND_AXIS_OFFSET-27 "-"
*MEAS_COND_AXIS_OFFSET-28 "-"
*MEAS_COND_AXIS_OFFSET-29 "-"
*MEAS_COND_AXIS_OFFSET-30 "-"
*MEAS_COND_AXIS_OFFSET-31 "-"
*MEAS_COND_AXIS_OFFSET-32 "-"
*MEAS_COND_AXIS_OFFSET-33 "0.0000000000"
*MEAS_COND_AXIS_OFFSET-34 "0.0000000000"
*MEAS_COND_AXIS_OFFSET-35 "-"
*MEAS_COND_AXIS_POSITION-0 "-0.0008000000"
*MEAS_COND_AXIS_POSITION-1 "-0.0008000000"
*MEAS_COND_AXIS_POSITION-2 "-0.0004000000"
*MEAS_COND_AXIS_POSITION-3 "0.0000000000"
*MEAS_COND_AXIS_POSITION-4 "0.0000000000"
*MEAS_COND_AXIS_POSITION-5 "-1.4515000000"
*MEAS_COND_AXIS_POSITION-6 "-0.0008000000"
*MEAS_COND_AXIS_POSITION-7 "-0.0004000000"
*MEAS_COND_AXIS_POSITION-8 "-0.0004000000"
*MEAS_COND_AXIS_POSITION-9 "-4.9464400000"
*MEAS_COND_AXIS_POSITION-10 "PB"
*MEAS_COND_AXIS_POSITION-11 "0.0000000000"
*MEAS_COND_AXIS_POSITION-12 "Soller_slit_open_s"
*MEAS_COND_AXIS_POSITION-13 "0.250mm"
*MEAS_COND_AXIS_POSITION-14 "0.2500000000"
*MEAS_COND_AXIS_POSITION-15 "-0.8990600000"
*MEAS_COND_AXIS_POSITION-16 "Ge(220)x2"
*MEAS_COND_AXIS_POSITION-17 "0.0000000000"
*MEAS_COND_AXIS_POSITION-18 "2.0mm"
*MEAS_COND_AXIS_POSITION-19 "None"
*MEAS_COND_AXIS_POSITION-20 "None"
*MEAS_COND_AXIS_POSITION-21 "0.250mm"
*MEAS_COND_AXIS_POSITION-22 "0.250mm"
*MEAS_COND_AXIS_POSITION-23 "No_unit"
*MEAS_COND_AXIS_POSITION-24 "Soller_slit_5.0deg"
*MEAS_COND_AXIS_POSITION-25 "None"
*MEAS_COND_AXIS_POSITION-26 "0.2500000000"
*MEAS_COND_AXIS_POSITION-27 "0.2500000000"
*MEAS_COND_AXIS_POSITION-28 "0.0878100000"
*MEAS_COND_AXIS_POSITION-29 "1/10000"
*MEAS_COND_AXIS_POSITION-30 "None"
*MEAS_COND_AXIS_POSITION-31 "None"
*MEAS_COND_AXIS_POSITION-32 "None"
*MEAS_COND_AXIS_POSITION-33 "0.0000000000"
*MEAS_COND_AXIS_POSITION-34 "0.0000000000"
*MEAS_COND_AXIS_POSITION-35 "34.0000000000"
*MEAS_COND_AXIS_UNIT-0 "deg"
*MEAS_COND_AXIS_UNIT-1 "deg"
*MEAS_COND_AXIS_UNIT-2 "deg"
*MEAS_COND_AXIS_UNIT-3 "deg"
*MEAS_COND_AXIS_UNIT-4 "deg"
*MEAS_COND_AXIS_UNIT-5 "mm"
*MEAS_COND_AXIS_UNIT-6 "deg"
*MEAS_COND_AXIS_UNIT-7 "deg"
*MEAS_COND_AXIS_UNIT-8 "deg"
*MEAS_COND_AXIS_UNIT-9 "mm"
*MEAS_COND_AXIS_UNIT-10 ""
*MEAS_COND_AXIS_UNIT-11 "pulse"
*MEAS_COND_AXIS_UNIT-12 ""
*MEAS_COND_AXIS_UNIT-13 ""
*MEAS_COND_AXIS_UNIT-14 "mm"
*MEAS_COND_AXIS_UNIT-15 "mm"
*MEAS_COND_AXIS_UNIT-16 ""
*MEAS_COND_AXIS_UNIT-17 "pulse"
*MEAS_COND_AXIS_UNIT-18 ""
*MEAS_COND_AXIS_UNIT-19 ""
*MEAS_COND_AXIS_UNIT-20 ""
*MEAS_COND_AXIS_UNIT-21 ""
*MEAS_COND_AXIS_UNIT-22 ""
*MEAS_COND_AXIS_UNIT-23 ""
*MEAS_COND_AXIS_UNIT-24 ""
*MEAS_COND_AXIS_UNIT-25 ""
*MEAS_COND_AXIS_UNIT-26 "mm"
*MEAS_COND_AXIS_UNIT-27 "mm"
*MEAS_COND_AXIS_UNIT-28 "mm"
*MEAS_COND_AXIS_UNIT-29 ""
*MEAS_COND_AXIS_UNIT-30 ""
*MEAS_COND_AXIS_UNIT-31 ""
*MEAS_COND_AXIS_UNIT-32 ""
*MEAS_COND_AXIS_UNIT-33 "deg"
*MEAS_COND_AXIS_UNIT-34 "deg"
*MEAS_COND_AXIS_UNIT-35 "div"
*MEAS_COND_COUNTER_CNTLOSS_CORR "0.0000000000"
*MEAS_COND_COUNTER_PHABASE "34.0000000000"
*MEAS_COND_COUNTER_PHAWINDOW "19.0000000000"
*MEAS_COND_COUNTER_PHA_UNIT "div"
*MEAS_COND_COUNTER_TAUDIFF "2.0000000000"
*MEAS_COND_COUNTER_TAUINT "0.1000000000"
*MEAS_COND_IRRADIATION_MODE "OFF"
*MEAS_COND_IRRADIATION_WIDTH ""
*MEAS_COND_OPT_ATTR "High resolution parallel beam Ge(220)x2/RS"
*MEAS_COND_OPT_NAME "@High resolution PB-Ge(220)x2"
*MEAS_COND_UNSYMMETRIC_MODE "OFF"
*MEAS_COND_XG_CURRENT "200.0000000000"
*MEAS_COND_XG_VOLTAGE "45.0000000000"
*MEAS_COND_XG_WAVE_TYPE "Ka1"
*MEAS_DATA_COUNT "3001.0000000000"
*MEAS_SCAN_AXIS_X "2-Theta/Omega"
*MEAS_SCAN_AXIS_X_INTERNAL "TwoThetaOmega"
*MEAS_SCAN_END_TIME "10/29/23 12:02:10"
*MEAS_SCAN_MODE "CONTINUOUS"
*MEAS_SCAN_MONITOR "0"
*MEAS_SCAN_RESOLUTION_X "0.0002"
*MEAS_SCAN_SPEED "0.500000"
*MEAS_SCAN_SPEED_UNIT "deg/min"
*MEAS_SCAN_SPEED_USER "0.500000"
*MEAS_SCAN_START "0.0000000000"
*MEAS_SCAN_START_TIME "10/29/23 11:49:39"
*MEAS_SCAN_STEP "0.0020000000"
*MEAS_SCAN_STOP "6.0000000000"
*MEAS_SCAN_UNIT_X "deg"
*MEAS_SCAN_UNIT_Y "counts"
*RAS_HEADER_END
*RAS_INT_START
0.0000 5528365.5000 1.0000
0.0020 5421064.0000 1.0000
0.0040 5410306.0000 1.0000
0.0060 5676077.0000 1.0000
0.0080 5528503.0000 1.0000
0.0100 5430856.0000 1.0000
0.0120 5505884.5000 1.0000
0.0140 5671939.5000 1.0000
0.0160 5444510.0000 1.0000
0.0180 5533330.5000 1.0000
0.0200 5530710.0000 1.0000
0.0220 5402307.0000 1.0000
0.0240 5324934.0000 1.0000
0.0260 5223149.5000 1.0000
0.0280 5296522.5000 1.0000
0.0300 5102883.5000 1.0000
0.0320 5110331.0000 1.0000
0.0340 4810770.0000 1.0000
0.0360 4698090.0000 1.0000
0.0380 4447214.0000 1.0000
0.0400 4145170.5000 1.0000
0.0420 3806440.2500 1.0000
0.0440 3500810.7500 1.0000
0.0460 3154219.0000 1.0000
0.0480 2866243.0000 1.0000
0.0500 2533581.2500 1.0000
0.0520 2199126.5000 1.0000
0.0540 1944802.8750 1.0000
0.0560 1680135.3750 1.0000
0.0580 1364851.3750 1.0000
0.0600 1159519.5000 1.0000
0.0620 962058.8125 1.0000
0.0640 760225.6875 1.0000
0.0660 612425.7500 1.0000
0.0680 473674.7813 1.0000
0.0700 371961.3125 1.0000
0.0720 297007.5000 1.0000
0.0740 239749.4375 1.0000
0.0760 194467.3281 1.0000
0.0780 164765.8281 1.0000
0.0800 141722.6094 1.0000
0.0820 125940.8906 1.0000
0.0840 120310.4141 1.0000
0.0860 104737.2422 1.0000
0.0880 100566.5156 1.0000
0.0900 95926.5938 1.0000
0.0920 93185.8281 1.0000
0.0940 94079.5547 1.0000
0.0960 87950.0859 1.0000
0.0980 89841.8047 1.0000
0.1000 90311.0078 1.0000
0.1020 88300.1328 1.0000
0.1040 91025.9922 1.0000
0.1060 91167.5000 1.0000
0.1080 92470.8516 1.0000
0.1100 92835.7891 1.0000
0.1120 97185.2578 1.0000
0.1140 98496.0547 1.0000
0.1160 97594.8828 1.0000
0.1180 99903.6719 1.0000
0.1200 100968.6953 1.0000
0.1220 103597.7422 1.0000
0.1240 105266.0313 1.0000
0.1260 105377.7422 1.0000
0.1280 106182.1016 1.0000
0.1300 108453.6484 1.0000
0.1320 112050.8984 1.0000
0.1340 110196.4141 1.0000
0.1360 115826.8906 1.0000
0.1380 116951.4922 1.0000
0.1400 119506.0625 1.0000
0.1420 117815.4297 1.0000
0.1440 119334.7656 1.0000
0.1460 120161.4609 1.0000
0.1480 125099.3047 1.0000
0.1500 121941.4688 1.0000
0.1520 123073.5156 1.0000
0.1540 126529.2578 1.0000
0.1560 131459.6563 1.0000
0.1580 131251.1094 1.0000
0.1600 132435.2969 1.0000
0.1620 135287.7656 1.0000
0.1640 134341.9063 1.0000
0.1660 136836.9063 1.0000
0.1680 136404.9219 1.0000
0.1700 143122.7656 1.0000
0.1720 145007.0469 1.0000
0.1740 142214.1563 1.0000
0.1760 141744.9375 1.0000
0.1780 144604.8594 1.0000
0.1800 143852.6406 1.0000
0.1820 145580.5156 1.0000
0.1840 144887.8750 1.0000
0.1860 151426.9844 1.0000
0.1880 153519.7813 1.0000
0.1900 156007.3281 1.0000
0.1920 154182.6250 1.0000
0.1940 156133.9375 1.0000
0.1960 157824.5625 1.0000
0.1980 160423.8125 1.0000
0.2000 162464.4844 1.0000
0.2020 162628.3438 1.0000
0.2040 166374.5469 1.0000
0.2060 165786.1719 1.0000
0.2080 166694.7969 1.0000
0.2100 170813.3750 1.0000
0.2120 172630.6250 1.0000
0.2140 174477.6563 1.0000
0.2160 176168.2969 1.0000
0.2180 178261.0938 1.0000
0.2200 176078.9219 1.0000
0.2220 177739.7656 1.0000
0.2240 183534.0781 1.0000
0.2260 174112.7188 1.0000
0.2280 181850.9063 1.0000
0.2300 181791.3125 1.0000
0.2320 187846.3125 1.0000
0.2340 183280.8594 1.0000
0.2360 189708.2344 1.0000
0.2380 188814.5156 1.0000
0.2400 189306.0625 1.0000
0.2420 194377.9531 1.0000
0.2440 193625.7344 1.0000
0.2460 197677.2969 1.0000
0.2480 196388.8438 1.0000
0.2500 201624.5781 1.0000
0.2520 199099.8125 1.0000
0.2540 200820.2344 1.0000
0.2560 207523.1719 1.0000
0.2580 199338.1406 1.0000
0.2600 211395.9844 1.0000
0.2620 207940.2500 1.0000
0.2640 213950.5625 1.0000
0.2660 212989.7969 1.0000
0.2680 213540.9375 1.0000
0.2700 214114.4063 1.0000
0.2720 213146.2031 1.0000
0.2740 214129.2969 1.0000
0.2760 224913.5938 1.0000
0.2780 213712.2344 1.0000
0.2800 225613.6719 1.0000
0.2820 219260.7813 1.0000
0.2840 222314.3438 1.0000
0.2860 226224.3906 1.0000
0.2880 224444.3906 1.0000
0.2900 229881.2188 1.0000
0.2920 232264.5000 1.0000
0.2940 230856.8750 1.0000
0.2960 234923.3281 1.0000
0.2980 236964.0000 1.0000
0.3000 232219.7969 1.0000
0.3020 240032.4688 1.0000
0.3040 239957.9844 1.0000
0.3060 246407.7031 1.0000
0.3080 242311.4531 1.0000
0.3100 241849.7031 1.0000
0.3120 243525.4375 1.0000
0.3140 245893.8125 1.0000
0.3160 253505.3906 1.0000
0.3180 249029.2969 1.0000
0.3200 248485.6250 1.0000
0.3220 240449.5313 1.0000
0.3240 249438.9219 1.0000
0.3260 250697.5938 1.0000
0.3280 257683.5625 1.0000
0.3300 254503.3750 1.0000
0.3320 249692.1563 1.0000
0.3340 259187.9844 1.0000
0.3360 264274.7813 1.0000
0.3380 259530.5781 1.0000
0.3400 267842.2500 1.0000
0.3420 272124.6563 1.0000
0.3440 262800.1250 1.0000
0.3460 269160.4688 1.0000
0.3480 273033.2813 1.0000
0.3500 266293.0938 1.0000
0.3520 270739.4063 1.0000
0.3540 276027.2813 1.0000
0.3560 276377.3125 1.0000
0.3580 277069.9375 1.0000
0.3600 280160.7500 1.0000
0.3620 275163.3438 1.0000
0.3640 287362.6875 1.0000
0.3660 281263.0313 1.0000
0.3680 288837.3438 1.0000
0.3700 281627.9688 1.0000
0.3720 287049.9063 1.0000
0.3740 283534.5625 1.0000
0.3760 287116.9375 1.0000
0.3780 292114.3438 1.0000
0.3800 296173.3438 1.0000
0.3820 289306.5625 1.0000
0.3840 289745.9688 1.0000
0.3860 294676.3438 1.0000
0.3880 297305.4063 1.0000
0.3900 301818.7188 1.0000
0.3920 303494.4375 1.0000
0.3940 300872.8438 1.0000
0.3960 303442.3125 1.0000
0.3980 302213.4375 1.0000
0.4000 303926.4063 1.0000
0.4020 312267.8750 1.0000
0.4040 307560.9063 1.0000
0.4060 308432.2813 1.0000
0.4080 303002.9063 1.0000
0.4100 310845.3438 1.0000
0.4120 314896.9063 1.0000
0.4140 313548.8750 1.0000
0.4160 313474.4063 1.0000
0.4180 315157.5625 1.0000
0.4200 313965.9375 1.0000
0.4220 316103.4375 1.0000
0.4240 318725.0313 1.0000
0.4260 317362.0938 1.0000
0.4280 322210.5625 1.0000
0.4300 323245.8125 1.0000
0.4320 320043.2813 1.0000
0.4340 323566.0625 1.0000
0.4360 330857.3750 1.0000
0.4380 321100.8438 1.0000
0.4400 330000.8750 1.0000
0.4420 328287.9063 1.0000
0.4440 330544.5625 1.0000
0.4460 327170.7500 1.0000
0.4480 335750.5000 1.0000
0.4500 336890.0313 1.0000
0.4520 336264.4063 1.0000
0.4540 329271.0000 1.0000
0.4560 339064.7500 1.0000
0.4580 335832.4375 1.0000
0.4600 337456.0313 1.0000
0.4620 343071.6250 1.0000
0.4640 342364.0938 1.0000
0.4660 337307.0938 1.0000
0.4680 340457.4688 1.0000
0.4700 344099.4063 1.0000
0.4720 349849.0313 1.0000
0.4740 338774.2813 1.0000
0.4760 348143.5313 1.0000
0.4780 350511.9063 1.0000
0.4800 352776.0000 1.0000
0.4820 346147.5313 1.0000
0.4840 353252.6563 1.0000
0.4860 357334.0000 1.0000
0.4880 361214.2500 1.0000
0.4900 349245.7813 1.0000
0.4920 356656.2500 1.0000
0.4940 358950.1563 1.0000
0.4960 354928.3750 1.0000
0.4980 357840.4375 1.0000
0.5000 358048.9688 1.0000
0.5020 362242.0313 1.0000
0.5040 357482.9375 1.0000
0.5060 355092.2500 1.0000
0.5080 361534.5313 1.0000
0.5100 366680.8750 1.0000
0.5120 362554.8438 1.0000
0.5140 364491.2500 1.0000
0.5160 360387.5625 1.0000
0.5180 364863.6563 1.0000
0.5200 371283.5625 1.0000
0.5220 380563.4375 1.0000
0.5240 371097.3750 1.0000
0.5260 370255.7813 1.0000
0.5280 372668.8438 1.0000
0.5300 375908.5938 1.0000
