*RAS_DATA_START
*RAS_HEADER_START
*DISP_FMT_X "%.4f"
*DISP_FMT_Y "%.0f"
*DISP_FULLSCALE "28604504.3000000010"
*DISP_LINE_COLOR "255.0000000000"
*DISP_LINE_STYLE "0.0000000000"
*DISP_LINE_WIDTH "0.2500000000"
*DISP_NOTE "Collected Data-1"
*DISP_OFFSET_Y "0.0000000000"
*DISP_PEAKSEARCH_UNIT_Y "cps"
*DISP_RANGE_BOTTOM "0.0100000000"
*DISP_RANGE_LEFT "-0.0006000000"
*DISP_RANGE_LOGCUTOFF "0.0100000000"
*DISP_RANGE_RIGHT "6.0006000000"
*DISP_RANGE_TOP "28604504.3000000010"
*DISP_SCALE_MODE_Y "2.0000000000"
*DISP_TAB_NAME "2-Theta/Omega"
*DISP_TITLE_Y "Intensity"
*DISP_UNIT_Y "cps"
*DISP_WINDOW_NAME "MSG_MACROENGINE"
*FILE_COMMENT " "
*FILE_MD5 ""
*FILE_MEMO " "
*FILE_OPERATOR "administrator"
*FILE_PART_ID "MEAS_KHP2_00055"
*FILE_SAMPLE "CWOI6"
*FILE_TYPE "RAS_RAW"
*FILE_USERGROUP "System Manager"
*FILE_VERSION "1.0000000000"
*HW_ATTACHMENT_ID "ATT0025"
*HW_ATTACHMENT_NAME "標準|Standard"
*HW_COUNTER_ID-0 "CUT0025"
*HW_COUNTER_ID-1 "CUT0020"
*HW_COUNTER_ID-2 "CUT0020"
*HW_COUNTER_ID-3 "CSL0021"
*HW_COUNTER_ID-4 "CMC0021"
*HW_COUNTER_NAME-0 "D/teX Ultra|D/teX Ultra"
*HW_COUNTER_NAME-1 "None|None"
*HW_COUNTER_NAME-2 "None|None"
*HW_COUNTER_NAME-3 "BBM|BBM"
*HW_COUNTER_NAME-4 "検出器モノクロメータ|Detector monochromator"
*HW_COUNTER_SELECT_NAME "D/teX Ultra|D/teX Ultra"
*HW_GONIOMETER_ID "GON0023"
*HW_GONIOMETER_NAME "SmartLab|SmartLab"
*HW_GONIOMETER_RADIUS-0 "90.0"
*HW_GONIOMETER_RADIUS-1 "114.0"
*HW_GONIOMETER_RADIUS-2 "190.0"
*HW_GONIOMETER_RADIUS-3 "300.0"
*HW_GONIOMETER_RADIUS-4 "187.0"
*HW_GONIOMETER_RADIUS-5 "300.0"
*HW_GONIOMETER_RADIUS-6 "113.0"
*HW_GONIOMETER_RADIUS-7 "331.0"
*HW_I_OPT_ID-0 "CBO0021"
*HW_I_OPT_ID-1 "ICR0021"
*HW_I_OPT_ID-2 "ISL0021"
*HW_I_OPT_ID-3 "ISO0021"
*HW_I_OPT_ID-4 "IAD0021"
*HW_I_OPT_ID-5 "IPR0001"
*HW_I_OPT_NAME-0 "CBOユニット|CBO unit"
*HW_I_OPT_NAME-1 "標準入射光学ユニット|Standard incident optical unit"
*HW_I_OPT_NAME-2 "標準入射スリットボックス|Standard incident slit box"
*HW_I_OPT_NAME-3 "入射平行スリット|Incident parallel slit"
*HW_I_OPT_NAME-4 "長手制限スリット|Length limiting slit"
*HW_I_OPT_NAME-5 "None|None"
*HW_R_ATTENUATER_AUTOMODE "1"
*HW_R_OPT_ID-0 "RSS0021"
*HW_R_OPT_ID-1 "RCR0023"
*HW_R_OPT_ID-2 "RSO0021"
*HW_R_OPT_ID-3 "RRS0021"
*HW_R_OPT_ID-4 "ATN0021"
*HW_R_OPT_ID-5 "RFL0021"
*HW_R_OPT_ID-6 "RAD0021"
*HW_R_OPT_NAME-0 "標準受光スリットボックス1|Standard receiving slit box # 1"
*HW_R_OPT_NAME-1 "標準受光光学ユニット1|Standard receiving unit # 1"
*HW_R_OPT_NAME-2 "標準受光光学ユニット2|Standard receiving optical unit # 2"
*HW_R_OPT_NAME-3 "標準受光スリットボックス2|Standard receiving slit box # 2"
*HW_R_OPT_NAME-4 "標準アッテネータ|Standard Attenuator"
*HW_R_OPT_NAME-5 "Cu Kβ|Cu K-beta"
*HW_R_OPT_NAME-6 "調整用受光スリット|Alignment receiving slit"
*HW_SAMPLE_HOLDER_ID "SMP0021"
*HW_SAMPLE_HOLDER_NAME "χφZクレードル|Chi phi Z cradle"
*HW_XG_CURRENT_MAX "200"
*HW_XG_CURRENT_MIN "10"
*HW_XG_CURRENT_RESOLUTION "1"
*HW_XG_CURRENT_UNIT "mA"
*HW_XG_FOCUS "0.4mm x 8mm"
*HW_XG_FOCUS_TYPE "Normal"
*HW_XG_ID "1700"
*HW_XG_NAME "9kW 開放管(45kV 200mA ID:1700)|9kW Rotating anode(45kV 200mA ID:1700)"
*HW_XG_TARGET_ATOMIC_NUMBER "29.0000000000"
*HW_XG_TARGET_NAME "Cu"
*HW_XG_TYPE "Rota"
*HW_XG_VOLTAGE_MAX "45"
*HW_XG_VOLTAGE_MIN "20"
*HW_XG_VOLTAGE_RESOLUTION "1"
*HW_XG_VOLTAGE_UNIT "kV"
*HW_XG_WATT_MAX "9.00"
*HW_XG_WATT_UNIT "kW"
*HW_XG_WAVE_LENGTH_ALPHA1 "1.540593"
*HW_XG_WAVE_LENGTH_ALPHA2 "1.544414"
*HW_XG_WAVE_LENGTH_BETA "1.392250"
*MEAS_COND_AXIS_NAME-0 "Theta/2-Theta"
*MEAS_COND_AXIS_NAME-1 "2-Theta"
*MEAS_COND_AXIS_NAME-2 "Omega"
*MEAS_COND_AXIS_NAME-3 "Chi"
*MEAS_COND_AXIS_NAME-4 "Phi"
*MEAS_COND_AXIS_NAME-5 "Z"
*MEAS_COND_AXIS_NAME-6 "2-Theta/Omega"
*MEAS_COND_AXIS_NAME-7 "Theta_s"
*MEAS_COND_AXIS_NAME-8 "Theta_d"
*MEAS_COND_AXIS_NAME-9 "Ts"
*MEAS_COND_AXIS_NAME-10 "CBO selection slit"
*MEAS_COND_AXIS_NAME-11 "M"
*MEAS_COND_AXIS_NAME-12 "Incident parallel slit"
*MEAS_COND_AXIS_NAME-13 "Incident slit"
*MEAS_COND_AXIS_NAME-14 ""
*MEAS_COND_AXIS_NAME-15 "Zs"
*MEAS_COND_AXIS_NAME-16 "Incident optical device"
*MEAS_COND_AXIS_NAME-17 "Omega_m"
*MEAS_COND_AXIS_NAME-18 "Length limiting slit"
*MEAS_COND_AXIS_NAME-19 "Center slit"
*MEAS_COND_AXIS_NAME-20 "Filter"
*MEAS_COND_AXIS_NAME-21 "Receiving slit # 1"
*MEAS_COND_AXIS_NAME-22 "Receiving slit # 2"
*MEAS_COND_AXIS_NAME-23 "Receiving optical device"
*MEAS_COND_AXIS_NAME-24 "Receiving parallel slit"
*MEAS_COND_AXIS_NAME-25 "Alignment receiving slit"
*MEAS_COND_AXIS_NAME-26 ""
*MEAS_COND_AXIS_NAME-27 ""
*MEAS_COND_AXIS_NAME-28 "Zd"
*MEAS_COND_AXIS_NAME-29 "Attenuator"
*MEAS_COND_AXIS_NAME-30 "Diffracted beam monochromator"
*MEAS_COND_AXIS_NAME-31 "Monochromator slit"
*MEAS_COND_AXIS_NAME-32 ""
*MEAS_COND_AXIS_NAME-33 ""
*MEAS_COND_AXIS_NAME-34 "Primary beam"
*MEAS_COND_AXIS_NAME-35 "PHA"
*MEAS_COND_AXIS_NAME_INTERNAL-0 "TwoThetaTheta"
*MEAS_COND_AXIS_NAME_INTERNAL-1 "TwoTheta"
*MEAS_COND_AXIS_NAME_INTERNAL-2 "Omega"
*MEAS_COND_AXIS_NAME_INTERNAL-3 "Chi"
*MEAS_COND_AXIS_NAME_INTERNAL-4 "Phi"
*MEAS_COND_AXIS_NAME_INTERNAL-5 "Z"
*MEAS_COND_AXIS_NAME_INTERNAL-6 "TwoThetaOmega"
*MEAS_COND_AXIS_NAME_INTERNAL-7 "ThetaS"
*MEAS_COND_AXIS_NAME_INTERNAL-8 "ThetaD"
*MEAS_COND_AXIS_NAME_INTERNAL-9 "Ts"
*MEAS_COND_AXIS_NAME_INTERNAL-10 "CBO"
*MEAS_COND_AXIS_NAME_INTERNAL-11 "CBO-M"
*MEAS_COND_AXIS_NAME_INTERNAL-12 "IncidentSollerSlit"
*MEAS_COND_AXIS_NAME_INTERNAL-13 "IncidentSlitBox"
*MEAS_COND_AXIS_NAME_INTERNAL-14 "IncidentSlitBox-_Axis"
*MEAS_COND_AXIS_NAME_INTERNAL-15 "Zs"
*MEAS_COND_AXIS_NAME_INTERNAL-16 "IncidentMonochromator"
*MEAS_COND_AXIS_NAME_INTERNAL-17 "IncidentMonochromator-OmegaM"
*MEAS_COND_AXIS_NAME_INTERNAL-18 "IncidentAxdSlit"
*MEAS_COND_AXIS_NAME_INTERNAL-19 "CenterSlit"
*MEAS_COND_AXIS_NAME_INTERNAL-20 "Filter"
*MEAS_COND_AXIS_NAME_INTERNAL-21 "ReceivingSlitBox1"
*MEAS_COND_AXIS_NAME_INTERNAL-22 "ReceivingSlitBox2"
*MEAS_COND_AXIS_NAME_INTERNAL-23 "ReceivingOptics"
*MEAS_COND_AXIS_NAME_INTERNAL-24 "ReceivingSollerSlit"
*MEAS_COND_AXIS_NAME_INTERNAL-25 "ReceivingAxdSlit"
*MEAS_COND_AXIS_NAME_INTERNAL-26 "ReceivingSlitBox1-_Axis"
*MEAS_COND_AXIS_NAME_INTERNAL-27 "ReceivingSlitBox2-_Axis"
*MEAS_COND_AXIS_NAME_INTERNAL-28 "ReceivingSlitBox2-Zd"
*MEAS_COND_AXIS_NAME_INTERNAL-29 "Attenuator"
*MEAS_COND_AXIS_NAME_INTERNAL-30 "CounterMonochromator"
*MEAS_COND_AXIS_NAME_INTERNAL-31 "CounterSlit"
*MEAS_COND_AXIS_NAME_INTERNAL-32 "AlphaR"
*MEAS_COND_AXIS_NAME_INTERNAL-33 "BetaR"
*MEAS_COND_AXIS_NAME_INTERNAL-34 "IncidentPrimary"
*MEAS_COND_AXIS_NAME_INTERNAL-35 "PHA"
*MEAS_COND_AXIS_NAME_MAGICNO-0 "83951616.0000000000"
*MEAS_COND_AXIS_NAME_MAGICNO-1 "268632064.0000000000"
*MEAS_COND_AXIS_NAME_MAGICNO-2 "268500992.0000000000"
*MEAS_COND_AXIS_NAME_MAGICNO-3 "268500992.0000000000"
*MEAS_COND_AXIS_NAME_MAGICNO-4 "268500992.0000000000"
*MEAS_COND_AXIS_NAME_MAGICNO-5 "285278208.0000000000"
*MEAS_COND_AXIS_NAME_MAGICNO-6 "83951616.0000000000"
*MEAS_COND_AXIS_NAME_MAGICNO-7 "131072.0000000000"
*MEAS_COND_AXIS_NAME_MAGICNO-8 "131072.0000000000"
*MEAS_COND_AXIS_NAME_MAGICNO-9 "318898176.0000000000"
*MEAS_COND_AXIS_NAME_MAGICNO-10 "20971521.0000000000"
*MEAS_COND_AXIS_NAME_MAGICNO-11 "285343744.0000000000"
*MEAS_COND_AXIS_NAME_MAGICNO-12 "20971521.0000000000"
*MEAS_COND_AXIS_NAME_MAGICNO-13 "22020097.0000000000"
*MEAS_COND_AXIS_NAME_MAGICNO-14 "25165824.0000000000"
*MEAS_COND_AXIS_NAME_MAGICNO-15 "318898176.0000000000"
*MEAS_COND_AXIS_NAME_MAGICNO-16 "20971521.0000000000"
*MEAS_COND_AXIS_NAME_MAGICNO-17 "285343744.0000000000"
*MEAS_COND_AXIS_NAME_MAGICNO-18 "20971521.0000000000"
*MEAS_COND_AXIS_NAME_MAGICNO-19 "20971521.0000000000"
*MEAS_COND_AXIS_NAME_MAGICNO-20 "20971521.0000000000"
*MEAS_COND_AXIS_NAME_MAGICNO-21 "23068673.0000000000"
*MEAS_COND_AXIS_NAME_MAGICNO-22 "23068673.0000000000"
*MEAS_COND_AXIS_NAME_MAGICNO-23 "20971521.0000000000"
*MEAS_COND_AXIS_NAME_MAGICNO-24 "20971521.0000000000"
*MEAS_COND_AXIS_NAME_MAGICNO-25 "20971521.0000000000"
*MEAS_COND_AXIS_NAME_MAGICNO-26 "25165824.0000000000"
*MEAS_COND_AXIS_NAME_MAGICNO-27 "25165824.0000000000"
*MEAS_COND_AXIS_NAME_MAGICNO-28 "285343744.0000000000"
*MEAS_COND_AXIS_NAME_MAGICNO-29 "17301505.0000000000"
*MEAS_COND_AXIS_NAME_MAGICNO-30 "20971521.0000000000"
*MEAS_COND_AXIS_NAME_MAGICNO-31 "20971521.0000000000"
*MEAS_COND_AXIS_NAME_MAGICNO-32 "8388608.0000000000"
*MEAS_COND_AXIS_NAME_MAGICNO-33 "8388608.0000000000"
*MEAS_COND_AXIS_NAME_MAGICNO-34 "20971521.0000000000"
*MEAS_COND_AXIS_NAME_MAGICNO-35 "0.0000000000"
*MEAS_COND_AXIS_OFFSET-0 "-"
*MEAS_COND_AXIS_OFFSET-1 "0.8904000000"
*MEAS_COND_AXIS_OFFSET-2 "0.7143000000"
*MEAS_COND_AXIS_OFFSET-3 "0.0000000000"
*MEAS_COND_AXIS_OFFSET-4 "0.0000000000"
*MEAS_COND_AXIS_OFFSET-5 "-"
*MEAS_COND_AXIS_OFFSET-6 "-"
*MEAS_COND_AXIS_OFFSET-7 "0.7143000000"
*MEAS_COND_AXIS_OFFSET-8 "0.1761000000"
*MEAS_COND_AXIS_OFFSET-9 "-"
*MEAS_COND_AXIS_OFFSET-10 "-"
*MEAS_COND_AXIS_OFFSET-11 "-"
*MEAS_COND_AXIS_OFFSET-12 "-"
*MEAS_COND_AXIS_OFFSET-13 "-"
*MEAS_COND_AXIS_OFFSET-14 "-"
*MEAS_COND_AXIS_OFFSET-15 "-"
*MEAS_COND_AXIS_OFFSET-16 "-"
*MEAS_COND_AXIS_OFFSET-17 "-"
*MEAS_COND_AXIS_OFFSET-18 "-"
*MEAS_COND_AXIS_OFFSET-19 "-"
*MEAS_COND_AXIS_OFFSET-20 "-"
*MEAS_COND_AXIS_OFFSET-21 "-"
*MEAS_COND_AXIS_OFFSET-22 "-"
*MEAS_COND_AXIS_OFFSET-23 "-"
*MEAS_COND_AXIS_OFFSET-24 "-"
*MEAS_COND_AXIS_OFFSET-25 "-"
*MEAS_COND_AXIS_OFFSET-26 "-"
*MEAS_COND_AXIS_OFFSET-27 "-"
*MEAS_COND_AXIS_OFFSET-28 "-"
*MEAS_COND_AXIS_OFFSET-29 "-"
*MEAS_COND_AXIS_OFFSET-30 "-"
*MEAS_COND_AXIS_OFFSET-31 "-"
*MEAS_COND_AXIS_OFFSET-32 "0.0000000000"
*MEAS_COND_AXIS_OFFSET-33 "0.0000000000"
*MEAS_COND_AXIS_OFFSET-34 "-"
*MEAS_COND_AXIS_OFFSET-35 "-"
*MEAS_COND_AXIS_POSITION-0 "-0.0008000000"
*MEAS_COND_AXIS_POSITION-1 "-0.0008000000"
*MEAS_COND_AXIS_POSITION-2 "-0.0004000000"
*MEAS_COND_AXIS_POSITION-3 "0.0000000000"
*MEAS_COND_AXIS_POSITION-4 "0.0000000000"
*MEAS_COND_AXIS_POSITION-5 "-1.4085000000"
*MEAS_COND_AXIS_POSITION-6 "-0.0008000000"
*MEAS_COND_AXIS_POSITION-7 "-0.0004000000"
*MEAS_COND_AXIS_POSITION-8 "-0.0004000000"
*MEAS_COND_AXIS_POSITION-9 "-4.7391900000"
*MEAS_COND_AXIS_POSITION-10 "PB"
*MEAS_COND_AXIS_POSITION-11 "0.0000000000"
*MEAS_COND_AXIS_POSITION-12 "Soller_slit_open_s"
*MEAS_COND_AXIS_POSITION-13 "0.250mm"
*MEAS_COND_AXIS_POSITION-14 "0.2500000000"
*MEAS_COND_AXIS_POSITION-15 "-1.7675000000"
*MEAS_COND_AXIS_POSITION-16 "Ge(220)x2"
*MEAS_COND_AXIS_POSITION-17 "0.0000000000"
*MEAS_COND_AXIS_POSITION-18 "2.0mm"
*MEAS_COND_AXIS_POSITION-19 "None"
*MEAS_COND_AXIS_POSITION-20 "None"
*MEAS_COND_AXIS_POSITION-21 "0.250mm"
*MEAS_COND_AXIS_POSITION-22 "0.250mm"
*MEAS_COND_AXIS_POSITION-23 "No_unit"
*MEAS_COND_AXIS_POSITION-24 "Soller_slit_5.0deg"
*MEAS_COND_AXIS_POSITION-25 "None"
*MEAS_COND_AXIS_POSITION-26 "0.2500000000"
*MEAS_COND_AXIS_POSITION-27 "0.2500000000"
*MEAS_COND_AXIS_POSITION-28 "0.0862500000"
*MEAS_COND_AXIS_POSITION-29 "1/10000"
*MEAS_COND_AXIS_POSITION-30 "None"
*MEAS_COND_AXIS_POSITION-31 "None"
*MEAS_COND_AXIS_POSITION-32 "0.6500000000"
*MEAS_COND_AXIS_POSITION-33 "0.0000000000"
*MEAS_COND_AXIS_POSITION-34 "None"
*MEAS_COND_AXIS_POSITION-35 "34.0000000000"
*MEAS_COND_AXIS_UNIT-0 "deg"
*MEAS_COND_AXIS_UNIT-1 "deg"
*MEAS_COND_AXIS_UNIT-2 "deg"
*MEAS_COND_AXIS_UNIT-3 "deg"
*MEAS_COND_AXIS_UNIT-4 "deg"
*MEAS_COND_AXIS_UNIT-5 "mm"
*MEAS_COND_AXIS_UNIT-6 "deg"
*MEAS_COND_AXIS_UNIT-7 "deg"
*MEAS_COND_AXIS_UNIT-8 "deg"
*MEAS_COND_AXIS_UNIT-9 "mm"
*MEAS_COND_AXIS_UNIT-10 ""
*MEAS_COND_AXIS_UNIT-11 "pulse"
*MEAS_COND_AXIS_UNIT-12 ""
*MEAS_COND_AXIS_UNIT-13 ""
*MEAS_COND_AXIS_UNIT-14 "mm"
*MEAS_COND_AXIS_UNIT-15 "mm"
*MEAS_COND_AXIS_UNIT-16 ""
*MEAS_COND_AXIS_UNIT-17 "pulse"
*MEAS_COND_AXIS_UNIT-18 ""
*MEAS_COND_AXIS_UNIT-19 ""
*MEAS_COND_AXIS_UNIT-20 ""
*MEAS_COND_AXIS_UNIT-21 ""
*MEAS_COND_AXIS_UNIT-22 ""
*MEAS_COND_AXIS_UNIT-23 ""
*MEAS_COND_AXIS_UNIT-24 ""
*MEAS_COND_AXIS_UNIT-25 ""
*MEAS_COND_AXIS_UNIT-26 "mm"
*MEAS_COND_AXIS_UNIT-27 "mm"
*MEAS_COND_AXIS_UNIT-28 "mm"
*MEAS_COND_AXIS_UNIT-29 ""
*MEAS_COND_AXIS_UNIT-30 ""
*MEAS_COND_AXIS_UNIT-31 ""
*MEAS_COND_AXIS_UNIT-32 "deg"
*MEAS_COND_AXIS_UNIT-33 "deg"
*MEAS_COND_AXIS_UNIT-34 ""
*MEAS_COND_AXIS_UNIT-35 "div"
*MEAS_COND_COUNTER_CNTLOSS_CORR "0.0000000000"
*MEAS_COND_COUNTER_PHABASE "34.0000000000"
*MEAS_COND_COUNTER_PHAWINDOW "19.0000000000"
*MEAS_COND_COUNTER_PHA_UNIT "div"
*MEAS_COND_COUNTER_TAUDIFF "2.0000000000"
*MEAS_COND_COUNTER_TAUINT "0.1000000000"
*MEAS_COND_IRRADIATION_MODE "OFF"
*MEAS_COND_IRRADIATION_WIDTH ""
*MEAS_COND_OPT_ATTR "High resolution parallel beam Ge(220)x2/RS"
*MEAS_COND_OPT_NAME "@High resolution PB-Ge(220)x2"
*MEAS_COND_UNSYMMETRIC_MODE "OFF"
*MEAS_COND_XG_CURRENT "200.0000000000"
*MEAS_COND_XG_VOLTAGE "45.0000000000"
*MEAS_COND_XG_WAVE_TYPE "Ka1"
*MEAS_DATA_COUNT "3001.0000000000"
*MEAS_SCAN_AXIS_X "2-Theta/Omega"
*MEAS_SCAN_AXIS_X_INTERNAL "TwoThetaOmega"
*MEAS_SCAN_END_TIME "11/24/23 21:05:41"
*MEAS_SCAN_MODE "CONTINUOUS"
*MEAS_SCAN_MONITOR "0"
*MEAS_SCAN_RESOLUTION_X "0.0002"
*MEAS_SCAN_SPEED "0.500000"
*MEAS_SCAN_SPEED_UNIT "deg/min"
*MEAS_SCAN_SPEED_USER "0.500000"
*MEAS_SCAN_START "0.0000000000"
*MEAS_SCAN_START_TIME "11/24/23 20:53:11"
*MEAS_SCAN_STEP "0.0020000000"
*MEAS_SCAN_STOP "6.0000000000"
*MEAS_SCAN_UNIT_X "deg"
*MEAS_SCAN_UNIT_Y "counts"
*RAS_HEADER_END
*RAS_INT_START
0.0000 5406582.5000 1.0000
0.0020 5488920.0000 1.0000
0.0040 5543398.5000 1.0000
0.0060 5510711.5000 1.0000
0.0080 5602152.0000 1.0000
0.0100 5491678.5000 1.0000
0.0120 5632218.5000 1.0000
0.0140 5557604.0000 1.0000
0.0160 5346035.5000 1.0000
0.0180 5396652.0000 1.0000
0.0200 5217632.5000 1.0000
0.0220 5181911.5000 1.0000
0.0240 5142742.5000 1.0000
0.0260 5165637.0000 1.0000
0.0280 5061094.0000 1.0000
0.0300 4850491.0000 1.0000
0.0320 4797943.5000 1.0000
0.0340 4599477.5000 1.0000
0.0360 4430112.0000 1.0000
0.0380 4118414.2500 1.0000
0.0400 3838575.5000 1.0000
0.0420 3516119.7500 1.0000
0.0440 3254900.2500 1.0000
0.0460 2881828.0000 1.0000
0.0480 2592473.0000 1.0000
0.0500 2336632.2500 1.0000
0.0520 2055552.2500 1.0000
0.0540 1751301.7500 1.0000
0.0560 1484289.6250 1.0000
0.0580 1225138.8750 1.0000
0.0600 1021920.1250 1.0000
0.0620 831150.3125 1.0000
0.0640 679023.2500 1.0000
0.0660 532005.3125 1.0000
0.0680 406235.7188 1.0000
0.0700 313660.5938 1.0000
0.0720 249558.0938 1.0000
0.0740 196783.5781 1.0000
0.0760 161444.1563 1.0000
0.0780 135481.4063 1.0000
0.0800 114210.7344 1.0000
0.0820 101497.4844 1.0000
0.0840 92455.9531 1.0000
0.0860 80197.0156 1.0000
0.0880 74223.9453 1.0000
0.0900 67617.8203 1.0000
0.0920 70060.6719 1.0000
0.0940 65919.7422 1.0000
0.0960 63864.1719 1.0000
0.0980 64109.9453 1.0000
0.1000 67662.5078 1.0000
0.1020 66470.8750 1.0000
0.1040 64698.3164 1.0000
0.1060 64914.3008 1.0000
0.1080 69152.0469 1.0000
0.1100 65949.5313 1.0000
0.1120 70142.5938 1.0000
0.1140 70917.1563 1.0000
0.1160 71133.1406 1.0000
0.1180 72913.1484 1.0000
0.1200 72659.9219 1.0000
0.1220 71669.3750 1.0000
0.1240 74223.9453 1.0000
0.1260 76994.4922 1.0000
0.1280 76860.4375 1.0000
0.1300 79973.5781 1.0000
0.1320 79020.2734 1.0000
0.1340 79318.1797 1.0000
0.1360 80331.0703 1.0000
0.1380 81664.2109 1.0000
0.1400 81053.5000 1.0000
0.1420 84375.1797 1.0000
0.1440 84501.7891 1.0000
0.1460 85611.5000 1.0000
0.1480 89871.5938 1.0000
0.1500 89901.3906 1.0000
0.1520 92366.5859 1.0000
0.1540 95524.4141 1.0000
0.1560 94839.2266 1.0000
0.1580 98041.7422 1.0000
0.1600 98324.7578 1.0000
0.1620 93766.7500 1.0000
0.1640 95889.3516 1.0000
0.1660 100283.5078 1.0000
0.1680 102987.0234 1.0000
0.1700 99590.8672 1.0000
0.1720 102994.4766 1.0000
0.1740 99777.0625 1.0000
0.1760 107060.9297 1.0000
0.1780 110844.3672 1.0000
0.1800 108356.8281 1.0000
0.1820 110561.3516 1.0000
0.1840 105243.6875 1.0000
0.1860 106472.5547 1.0000
0.1880 110695.4141 1.0000
0.1900 115819.4375 1.0000
0.1920 115633.2500 1.0000
0.1940 114173.5000 1.0000
0.1960 119975.2734 1.0000
0.1980 115111.9141 1.0000
0.2000 118560.2031 1.0000
0.2020 119237.9453 1.0000
0.2040 123267.1563 1.0000
0.2060 120481.7109 1.0000
0.2080 123967.2422 1.0000
0.2100 122112.7578 1.0000
0.2120 125084.3984 1.0000
0.2140 129359.3906 1.0000
0.2160 123483.1406 1.0000
0.2180 127169.7656 1.0000
0.2200 130439.3125 1.0000
0.2220 129217.8828 1.0000
0.2240 133470.5313 1.0000
0.2260 132934.2969 1.0000
0.2280 136799.6563 1.0000
0.2300 136397.4844 1.0000
0.2320 137738.0781 1.0000
0.2340 138348.7813 1.0000
0.2360 135205.8594 1.0000
0.2380 138110.4531 1.0000
0.2400 140426.7031 1.0000
0.2420 138832.8906 1.0000
0.2440 143338.7500 1.0000
0.2460 143078.0938 1.0000
0.2480 143308.9688 1.0000
0.2500 148641.5313 1.0000
0.2520 145714.5781 1.0000
0.2540 151501.4531 1.0000
0.2560 148194.6563 1.0000
0.2580 154339.0313 1.0000
0.2600 157779.8750 1.0000
0.2620 157452.1719 1.0000
0.2640 154413.5156 1.0000
0.2660 153631.5000 1.0000
0.2680 157184.0625 1.0000
0.2700 160662.1406 1.0000
0.2720 158331.0156 1.0000
0.2740 160319.5469 1.0000
0.2760 162278.2969 1.0000
0.2780 162047.4219 1.0000
0.2800 161250.5156 1.0000
0.2820 165324.4063 1.0000
0.2840 162695.3750 1.0000
0.2860 163410.3438 1.0000
0.2880 167849.1875 1.0000
0.2900 170589.9531 1.0000
0.2920 168132.2031 1.0000
0.2940 170634.6406 1.0000
0.2960 175684.1875 1.0000
0.2980 173628.6250 1.0000
0.3000 172600.8438 1.0000
0.3020 178164.2813 1.0000
0.3040 179408.0469 1.0000
0.3060 177270.5469 1.0000
0.3080 176160.8438 1.0000
0.3100 180510.3125 1.0000
0.3120 182476.5000 1.0000
0.3140 176644.9375 1.0000
0.3160 186148.2344 1.0000
0.3180 185068.3125 1.0000
0.3200 186066.3125 1.0000
0.3220 186163.1250 1.0000
0.3240 184829.9844 1.0000
0.3260 188881.5469 1.0000
0.3280 190400.8750 1.0000
0.3300 195718.5469 1.0000
0.3320 193774.6875 1.0000
0.3340 195152.5156 1.0000
0.3360 189663.5469 1.0000
0.3380 198742.3281 1.0000
0.3400 196090.9375 1.0000
0.3420 196232.4375 1.0000
0.3440 194452.4375 1.0000
0.3460 197074.0313 1.0000
0.3480 197297.4531 1.0000
0.3500 203642.9219 1.0000
0.3520 202682.1563 1.0000
0.3540 197513.4531 1.0000
0.3560 198422.0625 1.0000
0.3580 204678.1406 1.0000
0.3600 209779.8281 1.0000
0.3620 206569.8750 1.0000
0.3640 215566.7188 1.0000
0.3660 207821.0938 1.0000
0.3680 207135.8906 1.0000
0.3700 211112.9688 1.0000
0.3720 212490.8125 1.0000
0.3740 209243.5938 1.0000
0.3760 214970.8906 1.0000
0.3780 212155.6563 1.0000
0.3800 213898.4219 1.0000
0.3820 217331.8281 1.0000
0.3840 218493.6563 1.0000
0.3860 219722.5313 1.0000
0.3880 219402.2969 1.0000
0.3900 220363.0313 1.0000
0.3920 220206.6406 1.0000
0.3940 227602.2188 1.0000
0.3960 220400.2813 1.0000
0.3980 223766.6563 1.0000
0.4000 225598.7813 1.0000
0.4020 226857.4531 1.0000
0.4040 226842.5469 1.0000
0.4060 234997.8125 1.0000
0.4080 231110.0938 1.0000
0.4100 231467.5781 1.0000
0.4120 232495.3750 1.0000
0.4140 236338.3906 1.0000
0.4160 234774.3750 1.0000
0.4180 236934.2031 1.0000
0.4200 234655.2031 1.0000
0.4220 231415.4531 1.0000
0.4240 232376.2031 1.0000
0.4260 241104.9375 1.0000
0.4280 239399.3906 1.0000
0.4300 249178.2500 1.0000
0.4320 243689.2969 1.0000
0.4340 237284.2500 1.0000
0.4360 238699.3281 1.0000
0.4380 243644.6094 1.0000
0.4400 244791.5469 1.0000
0.4420 241522.0000 1.0000
0.4440 245379.9219 1.0000
0.4460 246065.1094 1.0000
0.4480 247629.1250 1.0000
0.4500 242423.1719 1.0000
0.4520 250377.3438 1.0000
0.4540 256417.4375 1.0000
0.4560 249811.3125 1.0000
0.4580 248969.7188 1.0000
0.4600 252939.3594 1.0000
0.4620 255203.4688 1.0000
0.4640 255210.9063 1.0000
0.4660 256007.8125 1.0000
0.4680 254652.3281 1.0000
0.4700 259955.0938 1.0000
0.4720 258152.7500 1.0000
0.4740 257437.7656 1.0000
0.4760 257683.5469 1.0000
0.4780 259106.0625 1.0000
0.4800 258279.3594 1.0000
0.4820 262926.7500 1.0000
0.4840 261750.0000 1.0000
0.4860 271454.3750 1.0000
0.4880 263351.2500 1.0000
0.4900 261347.8281 1.0000
0.4920 264609.9375 1.0000
0.4940 272407.6875 1.0000
0.4960 262926.7500 1.0000
0.4980 273457.8125 1.0000
0.5000 271677.8125 1.0000
0.5020 274910.1250 1.0000
0.5040 270158.4688 1.0000
0.5060 269786.0938 1.0000
0.5080 268996.6250 1.0000
0.5100 268951.9375 1.0000
0.5120 270113.7813 1.0000
0.5140 272444.9063 1.0000
0.5160 279609.6250 1.0000
0.5180 279758.5625 1.0000
0.5200 273331.1875 1.0000
0.5220 276638.0000 1.0000
0.5240 273197.1250 1.0000
0.5260 275520.8438 1.0000
0.5280 270367.0000 1.0000
0.5300 277635.9688 1.0000
0.5320 278470.1250 1.0000
0.5340 279713.9063 1.0000
