*RAS_DATA_START
*RAS_HEADER_START
*DISP_FMT_X "%.4f"
*DISP_FMT_Y "%.0f"
*DISP_FULLSCALE "29445813.2500000040"
*DISP_LINE_COLOR "255.0000000000"
*DISP_LINE_STYLE "0.0000000000"
*DISP_LINE_WIDTH "0.2500000000"
*DISP_NOTE "Collected Data-1"
*DISP_OFFSET_Y "0.0000000000"
*DISP_PEAKSEARCH_UNIT_Y "cps"
*DISP_RANGE_BOTTOM "0.0100000000"
*DISP_RANGE_LEFT "-0.0006000000"
*DISP_RANGE_LOGCUTOFF "0.0100000000"
*DISP_RANGE_RIGHT "6.0006000000"
*DISP_RANGE_TOP "29445813.2500000040"
*DISP_SCALE_MODE_Y "2.0000000000"
*DISP_TAB_NAME "2-Theta/Omega"
*DISP_TITLE_Y "Intensity"
*DISP_UNIT_Y "cps"
*DISP_WINDOW_NAME "MSG_MACROENGINE"
*FILE_COMMENT " "
*FILE_MD5 ""
*FILE_MEMO " "
*FILE_OPERATOR "administrator"
*FILE_PART_ID "MEAS_KHP2_00055"
*FILE_SAMPLE "CWO I9"
*FILE_TYPE "RAS_RAW"
*FILE_USERGROUP "System Manager"
*FILE_VERSION "1.0000000000"
*HW_ATTACHMENT_ID "ATT0025"
*HW_ATTACHMENT_NAME "標準|Standard"
*HW_COUNTER_ID-0 "CUT0025"
*HW_COUNTER_ID-1 "CUT0020"
*HW_COUNTER_ID-2 "CUT0020"
*HW_COUNTER_ID-3 "CSL0021"
*HW_COUNTER_ID-4 "CMC0021"
*HW_COUNTER_NAME-0 "D/teX Ultra|D/teX Ultra"
*HW_COUNTER_NAME-1 "None|None"
*HW_COUNTER_NAME-2 "None|None"
*HW_COUNTER_NAME-3 "BBM|BBM"
*HW_COUNTER_NAME-4 "検出器モノクロメータ|Detector monochromator"
*HW_COUNTER_SELECT_NAME "D/teX Ultra|D/teX Ultra"
*HW_GONIOMETER_ID "GON0023"
*HW_GONIOMETER_NAME "SmartLab|SmartLab"
*HW_GONIOMETER_RADIUS-0 "90.0"
*HW_GONIOMETER_RADIUS-1 "114.0"
*HW_GONIOMETER_RADIUS-2 "190.0"
*HW_GONIOMETER_RADIUS-3 "300.0"
*HW_GONIOMETER_RADIUS-4 "187.0"
*HW_GONIOMETER_RADIUS-5 "300.0"
*HW_GONIOMETER_RADIUS-6 "113.0"
*HW_GONIOMETER_RADIUS-7 "331.0"
*HW_I_OPT_ID-0 "CBO0021"
*HW_I_OPT_ID-1 "ICR0021"
*HW_I_OPT_ID-2 "ISL0021"
*HW_I_OPT_ID-3 "ISO0021"
*HW_I_OPT_ID-4 "IAD0021"
*HW_I_OPT_ID-5 "IPR0001"
*HW_I_OPT_NAME-0 "CBOユニット|CBO unit"
*HW_I_OPT_NAME-1 "標準入射光学ユニット|Standard incident optical unit"
*HW_I_OPT_NAME-2 "標準入射スリットボックス|Standard incident slit box"
*HW_I_OPT_NAME-3 "入射平行スリット|Incident parallel slit"
*HW_I_OPT_NAME-4 "長手制限スリット|Length limiting slit"
*HW_I_OPT_NAME-5 "None|None"
*HW_R_ATTENUATER_AUTOMODE "1"
*HW_R_OPT_ID-0 "RSS0021"
*HW_R_OPT_ID-1 "RCR0023"
*HW_R_OPT_ID-2 "RSO0021"
*HW_R_OPT_ID-3 "RRS0021"
*HW_R_OPT_ID-4 "ATN0021"
*HW_R_OPT_ID-5 "RFL0021"
*HW_R_OPT_ID-6 "RAD0021"
*HW_R_OPT_NAME-0 "標準受光スリットボックス1|Standard receiving slit box # 1"
*HW_R_OPT_NAME-1 "標準受光光学ユニット1|Standard receiving unit # 1"
*HW_R_OPT_NAME-2 "標準受光光学ユニット2|Standard receiving optical unit # 2"
*HW_R_OPT_NAME-3 "標準受光スリットボックス2|Standard receiving slit box # 2"
*HW_R_OPT_NAME-4 "標準アッテネータ|Standard Attenuator"
*HW_R_OPT_NAME-5 "Cu Kβ|Cu K-beta"
*HW_R_OPT_NAME-6 "調整用受光スリット|Alignment receiving slit"
*HW_SAMPLE_HOLDER_ID "SMP0021"
*HW_SAMPLE_HOLDER_NAME "χφZクレードル|Chi phi Z cradle"
*HW_XG_CURRENT_MAX "200"
*HW_XG_CURRENT_MIN "10"
*HW_XG_CURRENT_RESOLUTION "1"
*HW_XG_CURRENT_UNIT "mA"
*HW_XG_FOCUS "0.4mm x 8mm"
*HW_XG_FOCUS_TYPE "Normal"
*HW_XG_ID "1700"
*HW_XG_NAME "9kW 開放管(45kV 200mA ID:1700)|9kW Rotating anode(45kV 200mA ID:1700)"
*HW_XG_TARGET_ATOMIC_NUMBER "29.0000000000"
*HW_XG_TARGET_NAME "Cu"
*HW_XG_TYPE "Rota"
*HW_XG_VOLTAGE_MAX "45"
*HW_XG_VOLTAGE_MIN "20"
*HW_XG_VOLTAGE_RESOLUTION "1"
*HW_XG_VOLTAGE_UNIT "kV"
*HW_XG_WATT_MAX "9.00"
*HW_XG_WATT_UNIT "kW"
*HW_XG_WAVE_LENGTH_ALPHA1 "1.540593"
*HW_XG_WAVE_LENGTH_ALPHA2 "1.544414"
*HW_XG_WAVE_LENGTH_BETA "1.392250"
*MEAS_COND_AXIS_NAME-0 "Theta/2-Theta"
*MEAS_COND_AXIS_NAME-1 "2-Theta"
*MEAS_COND_AXIS_NAME-2 "Omega"
*MEAS_COND_AXIS_NAME-3 "Chi"
*MEAS_COND_AXIS_NAME-4 "Phi"
*MEAS_COND_AXIS_NAME-5 "Z"
*MEAS_COND_AXIS_NAME-6 "2-Theta/Omega"
*MEAS_COND_AXIS_NAME-7 "Theta_s"
*MEAS_COND_AXIS_NAME-8 "Theta_d"
*MEAS_COND_AXIS_NAME-9 "Ts"
*MEAS_COND_AXIS_NAME-10 "CBO selection slit"
*MEAS_COND_AXIS_NAME-11 "M"
*MEAS_COND_AXIS_NAME-12 "Incident parallel slit"
*MEAS_COND_AXIS_NAME-13 "Incident slit"
*MEAS_COND_AXIS_NAME-14 ""
*MEAS_COND_AXIS_NAME-15 "Zs"
*MEAS_COND_AXIS_NAME-16 "Incident optical device"
*MEAS_COND_AXIS_NAME-17 "Omega_m"
*MEAS_COND_AXIS_NAME-18 "Length limiting slit"
*MEAS_COND_AXIS_NAME-19 "Center slit"
*MEAS_COND_AXIS_NAME-20 "Filter"
*MEAS_COND_AXIS_NAME-21 "Receiving slit # 1"
*MEAS_COND_AXIS_NAME-22 "Receiving slit # 2"
*MEAS_COND_AXIS_NAME-23 "Receiving optical device"
*MEAS_COND_AXIS_NAME-24 "Receiving parallel slit"
*MEAS_COND_AXIS_NAME-25 "Alignment receiving slit"
*MEAS_COND_AXIS_NAME-26 ""
*MEAS_COND_AXIS_NAME-27 ""
*MEAS_COND_AXIS_NAME-28 "Zd"
*MEAS_COND_AXIS_NAME-29 "Attenuator"
*MEAS_COND_AXIS_NAME-30 "Diffracted beam monochromator"
*MEAS_COND_AXIS_NAME-31 "Monochromator slit"
*MEAS_COND_AXIS_NAME-32 "Primary beam"
*MEAS_COND_AXIS_NAME-33 ""
*MEAS_COND_AXIS_NAME-34 ""
*MEAS_COND_AXIS_NAME-35 "PHA"
*MEAS_COND_AXIS_NAME_INTERNAL-0 "TwoThetaTheta"
*MEAS_COND_AXIS_NAME_INTERNAL-1 "TwoTheta"
*MEAS_COND_AXIS_NAME_INTERNAL-2 "Omega"
*MEAS_COND_AXIS_NAME_INTERNAL-3 "Chi"
*MEAS_COND_AXIS_NAME_INTERNAL-4 "Phi"
*MEAS_COND_AXIS_NAME_INTERNAL-5 "Z"
*MEAS_COND_AXIS_NAME_INTERNAL-6 "TwoThetaOmega"
*MEAS_COND_AXIS_NAME_INTERNAL-7 "ThetaS"
*MEAS_COND_AXIS_NAME_INTERNAL-8 "ThetaD"
*MEAS_COND_AXIS_NAME_INTERNAL-9 "Ts"
*MEAS_COND_AXIS_NAME_INTERNAL-10 "CBO"
*MEAS_COND_AXIS_NAME_INTERNAL-11 "CBO-M"
*MEAS_COND_AXIS_NAME_INTERNAL-12 "IncidentSollerSlit"
*MEAS_COND_AXIS_NAME_INTERNAL-13 "IncidentSlitBox"
*MEAS_COND_AXIS_NAME_INTERNAL-14 "IncidentSlitBox-_Axis"
*MEAS_COND_AXIS_NAME_INTERNAL-15 "Zs"
*MEAS_COND_AXIS_NAME_INTERNAL-16 "IncidentMonochromator"
*MEAS_COND_AXIS_NAME_INTERNAL-17 "IncidentMonochromator-OmegaM"
*MEAS_COND_AXIS_NAME_INTERNAL-18 "IncidentAxdSlit"
*MEAS_COND_AXIS_NAME_INTERNAL-19 "CenterSlit"
*MEAS_COND_AXIS_NAME_INTERNAL-20 "Filter"
*MEAS_COND_AXIS_NAME_INTERNAL-21 "ReceivingSlitBox1"
*MEAS_COND_AXIS_NAME_INTERNAL-22 "ReceivingSlitBox2"
*MEAS_COND_AXIS_NAME_INTERNAL-23 "ReceivingOptics"
*MEAS_COND_AXIS_NAME_INTERNAL-24 "ReceivingSollerSlit"
*MEAS_COND_AXIS_NAME_INTERNAL-25 "ReceivingAxdSlit"
*MEAS_COND_AXIS_NAME_INTERNAL-26 "ReceivingSlitBox1-_Axis"
*MEAS_COND_AXIS_NAME_INTERNAL-27 "ReceivingSlitBox2-_Axis"
*MEAS_COND_AXIS_NAME_INTERNAL-28 "ReceivingSlitBox2-Zd"
*MEAS_COND_AXIS_NAME_INTERNAL-29 "Attenuator"
*MEAS_COND_AXIS_NAME_INTERNAL-30 "CounterMonochromator"
*MEAS_COND_AXIS_NAME_INTERNAL-31 "CounterSlit"
*MEAS_COND_AXIS_NAME_INTERNAL-32 "IncidentPrimary"
*MEAS_COND_AXIS_NAME_INTERNAL-33 "AlphaR"
*MEAS_COND_AXIS_NAME_INTERNAL-34 "BetaR"
*MEAS_COND_AXIS_NAME_INTERNAL-35 "PHA"
*MEAS_COND_AXIS_NAME_MAGICNO-0 "83951616.0000000000"
*MEAS_COND_AXIS_NAME_MAGICNO-1 "268632064.0000000000"
*MEAS_COND_AXIS_NAME_MAGICNO-2 "268500992.0000000000"
*MEAS_COND_AXIS_NAME_MAGICNO-3 "268500992.0000000000"
*MEAS_COND_AXIS_NAME_MAGICNO-4 "268500992.0000000000"
*MEAS_COND_AXIS_NAME_MAGICNO-5 "285278208.0000000000"
*MEAS_COND_AXIS_NAME_MAGICNO-6 "83951616.0000000000"
*MEAS_COND_AXIS_NAME_MAGICNO-7 "131072.0000000000"
*MEAS_COND_AXIS_NAME_MAGICNO-8 "131072.0000000000"
*MEAS_COND_AXIS_NAME_MAGICNO-9 "318898176.0000000000"
*MEAS_COND_AXIS_NAME_MAGICNO-10 "20971521.0000000000"
*MEAS_COND_AXIS_NAME_MAGICNO-11 "285343744.0000000000"
*MEAS_COND_AXIS_NAME_MAGICNO-12 "20971521.0000000000"
*MEAS_COND_AXIS_NAME_MAGICNO-13 "22020097.0000000000"
*MEAS_COND_AXIS_NAME_MAGICNO-14 "25165824.0000000000"
*MEAS_COND_AXIS_NAME_MAGICNO-15 "318898176.0000000000"
*MEAS_COND_AXIS_NAME_MAGICNO-16 "20971521.0000000000"
*MEAS_COND_AXIS_NAME_MAGICNO-17 "285343744.0000000000"
*MEAS_COND_AXIS_NAME_MAGICNO-18 "20971521.0000000000"
*MEAS_COND_AXIS_NAME_MAGICNO-19 "20971521.0000000000"
*MEAS_COND_AXIS_NAME_MAGICNO-20 "20971521.0000000000"
*MEAS_COND_AXIS_NAME_MAGICNO-21 "23068673.0000000000"
*MEAS_COND_AXIS_NAME_MAGICNO-22 "23068673.0000000000"
*MEAS_COND_AXIS_NAME_MAGICNO-23 "20971521.0000000000"
*MEAS_COND_AXIS_NAME_MAGICNO-24 "20971521.0000000000"
*MEAS_COND_AXIS_NAME_MAGICNO-25 "20971521.0000000000"
*MEAS_COND_AXIS_NAME_MAGICNO-26 "25165824.0000000000"
*MEAS_COND_AXIS_NAME_MAGICNO-27 "25165824.0000000000"
*MEAS_COND_AXIS_NAME_MAGICNO-28 "285343744.0000000000"
*MEAS_COND_AXIS_NAME_MAGICNO-29 "17301505.0000000000"
*MEAS_COND_AXIS_NAME_MAGICNO-30 "20971521.0000000000"
*MEAS_COND_AXIS_NAME_MAGICNO-31 "20971521.0000000000"
*MEAS_COND_AXIS_NAME_MAGICNO-32 "20971521.0000000000"
*MEAS_COND_AXIS_NAME_MAGICNO-33 "8388608.0000000000"
*MEAS_COND_AXIS_NAME_MAGICNO-34 "8388608.0000000000"
*MEAS_COND_AXIS_NAME_MAGICNO-35 "0.0000000000"
*MEAS_COND_AXIS_OFFSET-0 "-"
*MEAS_COND_AXIS_OFFSET-1 "0.9127000000"
*MEAS_COND_AXIS_OFFSET-2 "0.6957000000"
*MEAS_COND_AXIS_OFFSET-3 "0.0000000000"
*MEAS_COND_AXIS_OFFSET-4 "0.0000000000"
*MEAS_COND_AXIS_OFFSET-5 "-"
*MEAS_COND_AXIS_OFFSET-6 "-"
*MEAS_COND_AXIS_OFFSET-7 "0.6957000000"
*MEAS_COND_AXIS_OFFSET-8 "0.2170000000"
*MEAS_COND_AXIS_OFFSET-9 "-"
*MEAS_COND_AXIS_OFFSET-10 "-"
*MEAS_COND_AXIS_OFFSET-11 "-"
*MEAS_COND_AXIS_OFFSET-12 "-"
*MEAS_COND_AXIS_OFFSET-13 "-"
*MEAS_COND_AXIS_OFFSET-14 "-"
*MEAS_COND_AXIS_OFFSET-15 "-"
*MEAS_COND_AXIS_OFFSET-16 "-"
*MEAS_COND_AXIS_OFFSET-17 "-"
*MEAS_COND_AXIS_OFFSET-18 "-"
*MEAS_COND_AXIS_OFFSET-19 "-"
*MEAS_COND_AXIS_OFFSET-20 "-"
*MEAS_COND_AXIS_OFFSET-21 "-"
*MEAS_COND_AXIS_OFFSET-22 "-"
*MEAS_COND_AXIS_OFFSET-23 "-"
*MEAS_COND_AXIS_OFFSET-24 "-"
*MEAS_COND_AXIS_OFFSET-25 "-"
*MEAS_COND_AXIS_OFFSET-26 "-"
*MEAS_COND_AXIS_OFFSET-27 "-"
*MEAS_COND_AXIS_OFFSET-28 "-"
*MEAS_COND_AXIS_OFFSET-29 "-"
*MEAS_COND_AXIS_OFFSET-30 "-"
*MEAS_COND_AXIS_OFFSET-31 "-"
*MEAS_COND_AXIS_OFFSET-32 "-"
*MEAS_COND_AXIS_OFFSET-33 "0.0000000000"
*MEAS_COND_AXIS_OFFSET-34 "0.0000000000"
*MEAS_COND_AXIS_OFFSET-35 "-"
*MEAS_COND_AXIS_POSITION-0 "-0.0008000000"
*MEAS_COND_AXIS_POSITION-1 "-0.0008000000"
*MEAS_COND_AXIS_POSITION-2 "-0.0004000000"
*MEAS_COND_AXIS_POSITION-3 "0.0000000000"
*MEAS_COND_AXIS_POSITION-4 "0.0000000000"
*MEAS_COND_AXIS_POSITION-5 "-1.4113000000"
*MEAS_COND_AXIS_POSITION-6 "-0.0008000000"
*MEAS_COND_AXIS_POSITION-7 "-0.0004000000"
*MEAS_COND_AXIS_POSITION-8 "-0.0004000000"
*MEAS_COND_AXIS_POSITION-9 "-4.8793100000"
*MEAS_COND_AXIS_POSITION-10 "PB"
*MEAS_COND_AXIS_POSITION-11 "0.0000000000"
*MEAS_COND_AXIS_POSITION-12 "Soller_slit_open_s"
*MEAS_COND_AXIS_POSITION-13 "0.250mm"
*MEAS_COND_AXIS_POSITION-14 "0.2500000000"
*MEAS_COND_AXIS_POSITION-15 "-1.7884400000"
*MEAS_COND_AXIS_POSITION-16 "Ge(220)x2"
*MEAS_COND_AXIS_POSITION-17 "0.0000000000"
*MEAS_COND_AXIS_POSITION-18 "2.0mm"
*MEAS_COND_AXIS_POSITION-19 "None"
*MEAS_COND_AXIS_POSITION-20 "None"
*MEAS_COND_AXIS_POSITION-21 "0.250mm"
*MEAS_COND_AXIS_POSITION-22 "0.250mm"
*MEAS_COND_AXIS_POSITION-23 "No_unit"
*MEAS_COND_AXIS_POSITION-24 "Soller_slit_5.0deg"
*MEAS_COND_AXIS_POSITION-25 "None"
*MEAS_COND_AXIS_POSITION-26 "0.2500000000"
*MEAS_COND_AXIS_POSITION-27 "0.2500000000"
*MEAS_COND_AXIS_POSITION-28 "0.0868700000"
*MEAS_COND_AXIS_POSITION-29 "1/10000"
*MEAS_COND_AXIS_POSITION-30 "None"
*MEAS_COND_AXIS_POSITION-31 "None"
*MEAS_COND_AXIS_POSITION-32 "None"
*MEAS_COND_AXIS_POSITION-33 "0.0000000000"
*MEAS_COND_AXIS_POSITION-34 "0.0000000000"
*MEAS_COND_AXIS_POSITION-35 "34.0000000000"
*MEAS_COND_AXIS_UNIT-0 "deg"
*MEAS_COND_AXIS_UNIT-1 "deg"
*MEAS_COND_AXIS_UNIT-2 "deg"
*MEAS_COND_AXIS_UNIT-3 "deg"
*MEAS_COND_AXIS_UNIT-4 "deg"
*MEAS_COND_AXIS_UNIT-5 "mm"
*MEAS_COND_AXIS_UNIT-6 "deg"
*MEAS_COND_AXIS_UNIT-7 "deg"
*MEAS_COND_AXIS_UNIT-8 "deg"
*MEAS_COND_AXIS_UNIT-9 "mm"
*MEAS_COND_AXIS_UNIT-10 ""
*MEAS_COND_AXIS_UNIT-11 "pulse"
*MEAS_COND_AXIS_UNIT-12 ""
*MEAS_COND_AXIS_UNIT-13 ""
*MEAS_COND_AXIS_UNIT-14 "mm"
*MEAS_COND_AXIS_UNIT-15 "mm"
*MEAS_COND_AXIS_UNIT-16 ""
*MEAS_COND_AXIS_UNIT-17 "pulse"
*MEAS_COND_AXIS_UNIT-18 ""
*MEAS_COND_AXIS_UNIT-19 ""
*MEAS_COND_AXIS_UNIT-20 ""
*MEAS_COND_AXIS_UNIT-21 ""
*MEAS_COND_AXIS_UNIT-22 ""
*MEAS_COND_AXIS_UNIT-23 ""
*MEAS_COND_AXIS_UNIT-24 ""
*MEAS_COND_AXIS_UNIT-25 ""
*MEAS_COND_AXIS_UNIT-26 "mm"
*MEAS_COND_AXIS_UNIT-27 "mm"
*MEAS_COND_AXIS_UNIT-28 "mm"
*MEAS_COND_AXIS_UNIT-29 ""
*MEAS_COND_AXIS_UNIT-30 ""
*MEAS_COND_AXIS_UNIT-31 ""
*MEAS_COND_AXIS_UNIT-32 ""
*MEAS_COND_AXIS_UNIT-33 "deg"
*MEAS_COND_AXIS_UNIT-34 "deg"
*MEAS_COND_AXIS_UNIT-35 "div"
*MEAS_COND_COUNTER_CNTLOSS_CORR "0.0000000000"
*MEAS_COND_COUNTER_PHABASE "34.0000000000"
*MEAS_COND_COUNTER_PHAWINDOW "19.0000000000"
*MEAS_COND_COUNTER_PHA_UNIT "div"
*MEAS_COND_COUNTER_TAUDIFF "2.0000000000"
*MEAS_COND_COUNTER_TAUINT "0.1000000000"
*MEAS_COND_IRRADIATION_MODE "OFF"
*MEAS_COND_IRRADIATION_WIDTH ""
*MEAS_COND_OPT_ATTR "High resolution parallel beam Ge(220)x2/RS"
*MEAS_COND_OPT_NAME "@High resolution PB-Ge(220)x2"
*MEAS_COND_UNSYMMETRIC_MODE "OFF"
*MEAS_COND_XG_CURRENT "200.0000000000"
*MEAS_COND_XG_VOLTAGE "45.0000000000"
*MEAS_COND_XG_WAVE_TYPE "Ka1"
*MEAS_DATA_COUNT "3001.0000000000"
*MEAS_SCAN_AXIS_X "2-Theta/Omega"
*MEAS_SCAN_AXIS_X_INTERNAL "TwoThetaOmega"
*MEAS_SCAN_END_TIME "11/06/23 13:48:04"
*MEAS_SCAN_MODE "CONTINUOUS"
*MEAS_SCAN_MONITOR "0"
*MEAS_SCAN_RESOLUTION_X "0.0002"
*MEAS_SCAN_SPEED "0.500000"
*MEAS_SCAN_SPEED_UNIT "deg/min"
*MEAS_SCAN_SPEED_USER "0.500000"
*MEAS_SCAN_START "0.0000000000"
*MEAS_SCAN_START_TIME "11/06/23 13:35:33"
*MEAS_SCAN_STEP "0.0020000000"
*MEAS_SCAN_STOP "6.0000000000"
*MEAS_SCAN_UNIT_X "deg"
*MEAS_SCAN_UNIT_Y "counts"
*RAS_HEADER_END
*RAS_INT_START
0.0000 5352104.0000 1.0000
0.0020 5379550.0000 1.0000
0.0040 5572913.0000 1.0000
0.0060 5620771.0000 1.0000
0.0080 5471680.5000 1.0000
0.0100 5466163.5000 1.0000
0.0120 5501057.5000 1.0000
0.0140 5509884.0000 1.0000
0.0160 5508918.5000 1.0000
0.0180 5329899.0000 1.0000
0.0200 5338726.0000 1.0000
0.0220 5159155.0000 1.0000
0.0240 5293074.5000 1.0000
0.0260 5199013.5000 1.0000
0.0280 5101090.5000 1.0000
0.0300 5046750.5000 1.0000
0.0320 4773532.0000 1.0000
0.0340 4690504.0000 1.0000
0.0360 4315639.0000 1.0000
0.0380 4063246.5000 1.0000
0.0400 3951531.5000 1.0000
0.0420 3542186.5000 1.0000
0.0440 3223868.2500 1.0000
0.0460 2911618.5000 1.0000
0.0480 2577025.7500 1.0000
0.0500 2269741.2500 1.0000
0.0520 2043691.1250 1.0000
0.0540 1766748.7500 1.0000
0.0560 1488978.8750 1.0000
0.0580 1275341.6250 1.0000
0.0600 1022463.3125 1.0000
0.0620 845003.0000 1.0000
0.0640 673452.3125 1.0000
0.0660 546290.0625 1.0000
0.0680 426679.6875 1.0000
0.0700 333829.0000 1.0000
0.0720 280183.0938 1.0000
0.0740 225308.3281 1.0000
0.0760 186416.3438 1.0000
0.0780 160669.5938 1.0000
0.0800 139458.5000 1.0000
0.0820 120585.9844 1.0000
0.0840 111805.1250 1.0000
0.0860 99717.4766 1.0000
0.0880 97937.4766 1.0000
0.0900 87317.0313 1.0000
0.0920 85968.9922 1.0000
0.0940 84933.7578 1.0000
0.0960 79787.3906 1.0000
0.0980 76674.2422 1.0000
0.1000 81842.9609 1.0000
0.1020 76651.8984 1.0000
0.1040 80599.1875 1.0000
0.1060 79549.0625 1.0000
0.1080 79407.5547 1.0000
0.1100 80606.6406 1.0000
0.1120 78819.1875 1.0000
0.1140 80301.2813 1.0000
0.1160 84822.0469 1.0000
0.1180 82989.9063 1.0000
0.1200 85738.1172 1.0000
0.1220 90028.0000 1.0000
0.1240 92135.7031 1.0000
0.1260 85447.6563 1.0000
0.1280 90489.7578 1.0000
0.1300 92537.8750 1.0000
0.1320 92820.8906 1.0000
0.1340 92478.2969 1.0000
0.1360 96797.9766 1.0000
0.1380 95405.2500 1.0000
0.1400 96649.0234 1.0000
0.1420 101944.3438 1.0000
0.1440 98704.5859 1.0000
0.1460 102838.0703 1.0000
0.1480 103962.6797 1.0000
0.1500 106964.1016 1.0000
0.1520 109004.7813 1.0000
0.1540 108490.8828 1.0000
0.1560 107761.0156 1.0000
0.1580 110382.6094 1.0000
0.1600 104923.4297 1.0000
0.1620 112140.2734 1.0000
0.1640 112832.9063 1.0000
0.1660 114866.1328 1.0000
0.1680 115134.2500 1.0000
0.1700 116675.9297 1.0000
0.1720 118113.3359 1.0000
0.1740 117651.5781 1.0000
0.1760 119133.6797 1.0000
0.1780 125620.6406 1.0000
0.1800 124942.8984 1.0000
0.1820 125717.4531 1.0000
0.1840 123431.0078 1.0000
0.1860 131325.5938 1.0000
0.1880 131534.1250 1.0000
0.1900 133664.1719 1.0000
0.1920 134446.1875 1.0000
0.1940 135317.5625 1.0000
0.1960 130945.7500 1.0000
0.1980 136814.5469 1.0000
0.2000 143286.6250 1.0000
0.2020 137559.3281 1.0000
0.2040 141908.7969 1.0000
0.2060 142839.7656 1.0000
0.2080 141558.7500 1.0000
0.2100 144321.8594 1.0000
0.2120 143711.1406 1.0000
0.2140 152149.4063 1.0000
0.2160 151449.3125 1.0000
0.2180 150637.5156 1.0000
0.2200 153542.1250 1.0000
0.2220 151814.2656 1.0000
0.2240 153549.5781 1.0000
0.2260 151978.1094 1.0000
0.2280 157720.2969 1.0000
0.2300 156290.3281 1.0000
0.2320 153728.3125 1.0000
0.2340 157653.2656 1.0000
0.2360 165465.9219 1.0000
0.2380 160483.4063 1.0000
0.2400 167320.4063 1.0000
0.2420 164482.8125 1.0000
0.2440 165912.7813 1.0000
0.2460 173546.6875 1.0000
0.2480 168377.9844 1.0000
0.2500 169346.1719 1.0000
0.2520 171610.2813 1.0000
0.2540 172064.5938 1.0000
0.2560 172243.3438 1.0000
0.2580 173308.3750 1.0000
0.2600 175669.2969 1.0000
0.2620 180778.4219 1.0000
0.2640 179050.5469 1.0000
0.2660 180763.5313 1.0000
0.2680 182327.5469 1.0000
0.2700 186922.7969 1.0000
0.2720 178849.4688 1.0000
0.2740 186587.6406 1.0000
0.2760 185708.8125 1.0000
0.2780 186550.4063 1.0000
0.2800 185410.9063 1.0000
0.2820 193491.6719 1.0000
0.2840 187094.0938 1.0000
0.2860 188442.1250 1.0000
0.2880 195308.9219 1.0000
0.2900 193752.3438 1.0000
0.2920 193953.4375 1.0000
0.2940 195361.0625 1.0000
0.2960 193461.8906 1.0000
0.2980 196820.8125 1.0000
0.3000 200589.3594 1.0000
0.3020 201051.1094 1.0000
0.3040 203858.8906 1.0000
0.3060 202093.7969 1.0000
0.3080 203881.2500 1.0000
0.3100 206033.6250 1.0000
0.3120 203389.6875 1.0000
0.3140 210911.8906 1.0000
0.3160 209288.2813 1.0000
0.3180 214077.1719 1.0000
0.3200 213391.9844 1.0000
0.3220 216959.4375 1.0000
0.3240 220236.4219 1.0000
0.3260 214308.0469 1.0000
0.3280 217145.6250 1.0000
0.3300 220623.7031 1.0000
0.3320 217868.0469 1.0000
0.3340 217525.4688 1.0000
0.3360 218374.5000 1.0000
0.3380 219402.2813 1.0000
0.3400 224243.2969 1.0000
0.3420 223126.1406 1.0000
0.3440 229047.0781 1.0000
0.3460 225911.5938 1.0000
0.3480 231638.8906 1.0000
0.3500 219782.1250 1.0000
0.3520 230663.2344 1.0000
0.3540 230827.0781 1.0000
0.3560 229069.4063 1.0000
0.3580 235653.2031 1.0000
0.3600 227684.1406 1.0000
0.3620 239779.2344 1.0000
0.3640 241797.5625 1.0000
0.3660 240471.8750 1.0000
0.3680 241000.6719 1.0000
0.3700 238200.3125 1.0000
0.3720 241119.8281 1.0000
0.3740 240754.8906 1.0000
0.3760 247442.9375 1.0000
0.3780 239913.2969 1.0000
0.3800 243376.5000 1.0000
0.3820 251874.3281 1.0000
0.3840 241112.3750 1.0000
0.3860 247621.6875 1.0000
0.3880 251524.2813 1.0000
0.3900 256030.1563 1.0000
0.3920 254346.9688 1.0000
0.3940 254227.8125 1.0000
0.3960 250451.8125 1.0000
0.3980 258517.7031 1.0000
0.4000 260349.8281 1.0000
0.4020 259940.2188 1.0000
0.4040 263954.5313 1.0000
0.4060 264892.9375 1.0000
0.4080 257139.8594 1.0000
0.4100 267462.4063 1.0000
0.4120 263269.3438 1.0000
0.4140 267559.2188 1.0000
0.4160 274239.8125 1.0000
0.4180 263544.9063 1.0000
0.4200 271216.0625 1.0000
0.4220 272765.1563 1.0000
0.4240 269763.7500 1.0000
0.4260 266941.0625 1.0000
0.4280 272497.0625 1.0000
0.4300 283124.9375 1.0000
0.4320 275349.5313 1.0000
0.4340 278343.5313 1.0000
0.4360 281106.6250 1.0000
0.4380 281665.1875 1.0000
0.4400 282737.6563 1.0000
0.4420 276921.0000 1.0000
0.4440 280369.3125 1.0000
0.4460 282968.5625 1.0000
0.4480 286610.4688 1.0000
0.4500 281851.3750 1.0000
0.4520 284331.4688 1.0000
0.4540 287727.6250 1.0000
0.4560 285642.2813 1.0000
0.4580 294460.3750 1.0000
0.4600 288450.0625 1.0000
0.4620 289224.6250 1.0000
0.4640 288524.5313 1.0000
0.4660 287965.9688 1.0000
0.4680 287280.7813 1.0000
0.4700 297722.4688 1.0000
0.4720 297156.4375 1.0000
0.4740 294020.9375 1.0000
0.4760 299755.6875 1.0000
0.4780 295048.7500 1.0000
0.4800 301528.2500 1.0000
0.4820 302667.7500 1.0000
0.4840 300016.3750 1.0000
0.4860 298847.0938 1.0000
0.4880 301565.5000 1.0000
0.4900 302258.1250 1.0000
0.4920 301230.3438 1.0000
0.4940 308737.6563 1.0000
0.4960 310748.5313 1.0000
0.4980 305058.4688 1.0000
0.5000 301379.3125 1.0000
0.5020 306935.3125 1.0000
0.5040 300269.5938 1.0000
0.5060 306674.6250 1.0000
0.5080 308722.7500 1.0000
0.5100 312074.2188 1.0000
0.5120 312610.4688 1.0000
0.5140 311567.7813 1.0000
0.5160 315634.2500 1.0000
0.5180 311590.1250 1.0000
0.5200 313191.3750 1.0000
0.5220 313161.5938 1.0000
0.5240 317913.2188 1.0000
0.5260 312848.7813 1.0000
0.5280 305296.7813 1.0000
0.5300 322702.1250 1.0000
0.5320 317861.0938 1.0000
